time	sig 0	sig 1
(sec)	(mV)	(mV)
  0.000	 -0.165	 -0.325
  0.008	 -0.155	 -0.325
  0.016	 -0.195	 -0.305
  0.023	 -0.205	 -0.305
  0.031	 -0.185	 -0.295
  0.039	 -0.155	 -0.265
  0.047	 -0.135	 -0.235
  0.055	 -0.095	 -0.185
  0.062	 -0.075	 -0.135
  0.070	 -0.065	 -0.095
  0.078	 -0.065	 -0.055
  0.086	 -0.125	 -0.015
  0.094	 -0.125	  0.005
  0.102	 -0.125	 -0.045
  0.109	 -0.115	 -0.015
  0.117	 -0.125	 -0.005
  0.125	 -0.165	 -0.015
  0.133	 -0.115	 -0.025
  0.141	 -0.145	 -0.025
  0.148	 -0.115	 -0.025
  0.156	 -0.135	 -0.015
  0.164	 -0.135	  0.005
  0.172	 -0.125	 -0.035
  0.180	 -0.175	 -0.025
  0.188	 -0.145	 -0.025
  0.195	 -0.125	 -0.025
  0.203	 -0.145	 -0.025
  0.211	 -0.145	 -0.005
  0.219	 -0.135	 -0.035
  0.227	 -0.165	 -0.045
  0.234	 -0.155	 -0.025
  0.242	 -0.095	 -0.005
  0.250	 -0.105	  0.015
  0.258	 -0.075	  0.035
  0.266	 -0.085	  0.055
  0.273	  0.025	  0.005
  0.281	  0.025	 -0.055
  0.289	 -0.025	 -0.065
  0.297	 -0.085	 -0.065
  0.305	 -0.115	 -0.055
  0.312	 -0.145	 -0.025
  0.320	 -0.125	 -0.005
  0.328	 -0.155	 -0.045
  0.336	 -0.205	 -0.065
  0.344	 -0.215	 -0.065
  0.352	 -0.215	 -0.055
  0.359	 -0.165	 -0.055
  0.367	 -0.165	 -0.055
  0.375	 -0.155	  0.005
  0.383	 -0.615	  0.125
  0.391	 -0.855	 -0.035
  0.398	 -0.185	 -0.335
  0.406	  1.295	 -0.385
  0.414	  2.575	 -0.145
  0.422	  2.675	  0.305
  0.430	  2.445	  0.625
  0.438	  0.735	 -0.665
  0.445	 -0.415	 -0.735
  0.453	 -0.295	 -0.225
  0.461	 -0.285	 -0.075
  0.469	 -0.345	 -0.085
  0.477	 -0.365	 -0.095
  0.484	 -0.345	 -0.085
  0.492	 -0.305	 -0.095
  0.500	 -0.315	 -0.115
  0.508	 -0.305	 -0.095
  0.516	 -0.265	 -0.105
  0.523	 -0.235	 -0.115
  0.531	 -0.265	 -0.115
  0.539	 -0.245	 -0.135
  0.547	 -0.215	 -0.145
  0.555	 -0.195	 -0.135
  0.562	 -0.175	 -0.185
  0.570	 -0.185	 -0.175
  0.578	 -0.155	 -0.205
  0.586	 -0.125	 -0.235
  0.594	 -0.145	 -0.265
  0.602	 -0.125	 -0.265
  0.609	 -0.145	 -0.265
  0.617	 -0.155	 -0.265
  0.625	 -0.185	 -0.295
  0.633	 -0.175	 -0.275
  0.641	 -0.175	 -0.255
  0.648	 -0.165	 -0.245
  0.656	 -0.165	 -0.225
  0.664	 -0.115	 -0.175
  0.672	 -0.065	 -0.135
  0.680	 -0.095	 -0.105
  0.688	 -0.115	 -0.085
  0.695	 -0.075	 -0.055
  0.703	 -0.115	 -0.055
  0.711	 -0.155	 -0.045
  0.719	 -0.105	 -0.065
  0.727	 -0.125	 -0.045
  0.734	 -0.135	 -0.035
  0.742	 -0.125	 -0.045
  0.750	 -0.115	 -0.045
  0.758	 -0.105	 -0.035
  0.766	 -0.135	 -0.025
  0.773	 -0.135	 -0.035
  0.781	 -0.135	 -0.055
  0.789	 -0.145	 -0.055
  0.797	 -0.125	 -0.035
  0.805	 -0.115	 -0.055
  0.812	 -0.135	 -0.065
  0.820	 -0.135	 -0.065
  0.828	 -0.165	 -0.055
  0.836	 -0.155	 -0.035
  0.844	 -0.115	 -0.045
  0.852	 -0.085	 -0.005
  0.859	 -0.055	  0.035
  0.867	 -0.055	  0.055
  0.875	 -0.045	  0.025
  0.883	  0.065	 -0.055
  0.891	  0.005	 -0.055
  0.898	 -0.015	 -0.085
  0.906	 -0.055	 -0.065
  0.914	 -0.115	 -0.045
  0.922	 -0.135	 -0.015
  0.930	 -0.135	 -0.055
  0.938	 -0.175	 -0.075
  0.945	 -0.205	 -0.075
  0.953	 -0.225	 -0.055
  0.961	 -0.175	 -0.055
  0.969	 -0.175	 -0.055
  0.977	 -0.155	 -0.055
  0.984	 -0.255	  0.105
  0.992	 -0.875	  0.165
  1.000	 -0.645	 -0.105
  1.008	  0.645	 -0.445
  1.016	  2.315	 -0.245
  1.023	  2.925	  0.045
  1.031	  2.725	  0.445
  1.039	  1.225	 -0.675
  1.047	 -0.185	 -0.785
  1.055	 -0.275	 -0.215
  1.062	 -0.275	 -0.035
  1.070	 -0.285	 -0.025
  1.078	 -0.285	 -0.045
  1.086	 -0.335	 -0.045
  1.094	 -0.305	 -0.045
  1.102	 -0.285	 -0.035
  1.109	 -0.275	 -0.055
  1.117	 -0.275	 -0.055
  1.125	 -0.245	 -0.065
  1.133	 -0.245	 -0.045
  1.141	 -0.225	 -0.075
  1.148	 -0.195	 -0.085
  1.156	 -0.205	 -0.095
  1.164	 -0.165	 -0.085
  1.172	 -0.125	 -0.105
  1.180	 -0.135	 -0.135
  1.188	 -0.105	 -0.145
  1.195	 -0.115	 -0.165
  1.203	 -0.115	 -0.175
  1.211	 -0.095	 -0.185
  1.219	 -0.155	 -0.215
  1.227	 -0.165	 -0.235
  1.234	 -0.185	 -0.205
  1.242	 -0.185	 -0.205
  1.250	 -0.175	 -0.195
  1.258	 -0.195	 -0.175
  1.266	 -0.135	 -0.115
  1.273	 -0.105	 -0.095
  1.281	 -0.105	 -0.095
  1.289	 -0.095	 -0.055
  1.297	 -0.095	 -0.015
  1.305	 -0.115	 -0.005
  1.312	 -0.105	 -0.025
  1.320	 -0.115	 -0.005
  1.328	 -0.115	 -0.015
  1.336	 -0.125	 -0.025
  1.344	 -0.115	 -0.025
  1.352	 -0.115	 -0.015
  1.359	 -0.115	 -0.005
  1.367	 -0.115	 -0.005
  1.375	 -0.105	 -0.045
  1.383	 -0.105	 -0.055
  1.391	 -0.095	 -0.025
  1.398	 -0.125	 -0.015
  1.406	 -0.115	 -0.045
  1.414	 -0.105	 -0.045
  1.422	 -0.095	 -0.015
  1.430	 -0.105	 -0.025
  1.438	 -0.105	 -0.055
  1.445	 -0.105	 -0.035
  1.453	 -0.075	 -0.015
  1.461	 -0.045	  0.015
  1.469	 -0.035	  0.045
  1.477	 -0.025	  0.045
  1.484	  0.065	  0.025
  1.492	  0.015	 -0.045
  1.500	 -0.055	 -0.085
  1.508	 -0.095	 -0.055
  1.516	 -0.045	 -0.055
  1.523	 -0.095	 -0.025
  1.531	 -0.145	 -0.035
  1.539	 -0.155	 -0.025
  1.547	 -0.155	 -0.045
  1.555	 -0.185	 -0.055
  1.562	 -0.185	 -0.045
  1.570	 -0.165	 -0.025
  1.578	 -0.155	 -0.025
  1.586	 -0.155	  0.045
  1.594	 -0.685	  0.225
  1.602	 -0.845	  0.035
  1.609	  0.055	 -0.415
  1.617	  1.645	 -0.265
  1.625	  2.725	 -0.195
  1.633	  2.855	  0.465
  1.641	  2.255	 -0.125
  1.648	  0.495	 -0.965
  1.656	 -0.255	 -0.465
  1.664	 -0.215	 -0.025
  1.672	 -0.255	  0.005
  1.680	 -0.295	 -0.015
  1.688	 -0.305	 -0.035
  1.695	 -0.335	 -0.015
  1.703	 -0.305	 -0.035
  1.711	 -0.345	 -0.045
  1.719	 -0.305	 -0.045
  1.727	 -0.265	 -0.035
  1.734	 -0.265	 -0.055
  1.742	 -0.265	 -0.065
  1.750	 -0.205	 -0.065
  1.758	 -0.215	 -0.065
  1.766	 -0.185	 -0.075
  1.773	 -0.165	 -0.095
  1.781	 -0.135	 -0.105
  1.789	 -0.155	 -0.125
  1.797	 -0.105	 -0.125
  1.805	 -0.125	 -0.155
  1.812	 -0.145	 -0.165
  1.820	 -0.135	 -0.195
  1.828	 -0.115	 -0.195
  1.836	 -0.175	 -0.195
  1.844	 -0.195	 -0.215
  1.852	 -0.215	 -0.205
  1.859	 -0.185	 -0.165
  1.867	 -0.185	 -0.135
  1.875	 -0.155	 -0.105
  1.883	 -0.125	 -0.055
  1.891	 -0.125	 -0.045
  1.898	 -0.135	 -0.025
  1.906	 -0.105	 -0.005
  1.914	 -0.125	  0.025
  1.922	 -0.135	  0.005
  1.930	 -0.165	  0.015
  1.938	 -0.175	  0.005
  1.945	 -0.175	  0.005
  1.953	 -0.095	  0.025
  1.961	 -0.125	  0.035
  1.969	 -0.135	  0.035
  1.977	 -0.145	  0.015
  1.984	 -0.125	  0.015
  1.992	 -0.115	  0.005
  2.000	 -0.095	  0.005
  2.008	 -0.125	  0.005
  2.016	 -0.155	  0.015
  2.023	 -0.125	  0.015
  2.031	 -0.125	  0.005
  2.039	 -0.165	  0.005
  2.047	 -0.135	  0.025
  2.055	 -0.115	  0.015
  2.062	 -0.055	  0.065
  2.070	 -0.035	  0.065
  2.078	 -0.085	  0.085
  2.086	 -0.045	  0.075
  2.094	  0.045	 -0.005
  2.102	 -0.005	 -0.015
  2.109	 -0.045	 -0.015
  2.117	 -0.125	 -0.025
  2.125	 -0.145	 -0.025
  2.133	 -0.115	  0.035
  2.141	 -0.135	  0.005
  2.148	 -0.175	 -0.005
  2.156	 -0.225	 -0.015
  2.164	 -0.205	 -0.015
  2.172	 -0.205	  0.005
  2.180	 -0.245	  0.005
  2.188	 -0.185	  0.005
  2.195	 -0.195	  0.105
  2.203	 -0.835	  0.165
  2.211	 -0.775	 -0.055
  2.219	  0.295	 -0.425
  2.227	  2.085	 -0.215
  2.234	  2.885	  0.125
  2.242	  2.645	  0.545
  2.250	  1.575	 -0.185
  2.258	  0.005	 -0.575
  2.266	 -0.305	 -0.235
  2.273	 -0.265	 -0.015
  2.281	 -0.315	 -0.005
  2.289	 -0.355	 -0.015
  2.297	 -0.355	  0.015
  2.305	 -0.365	 -0.005
  2.312	 -0.375	 -0.015
  2.320	 -0.335	 -0.005
  2.328	 -0.295	 -0.015
  2.336	 -0.285	 -0.005
  2.344	 -0.285	 -0.035
  2.352	 -0.265	 -0.025
  2.359	 -0.255	 -0.025
  2.367	 -0.245	 -0.025
  2.375	 -0.205	 -0.045
  2.383	 -0.175	 -0.055
  2.391	 -0.185	 -0.055
  2.398	 -0.145	 -0.075
  2.406	 -0.155	 -0.105
  2.414	 -0.175	 -0.125
  2.422	 -0.145	 -0.115
  2.430	 -0.215	 -0.145
  2.438	 -0.215	 -0.155
  2.445	 -0.215	 -0.155
  2.453	 -0.265	 -0.145
  2.461	 -0.245	 -0.145
  2.469	 -0.225	 -0.125
  2.477	 -0.175	 -0.115
  2.484	 -0.185	 -0.075
  2.492	 -0.175	 -0.045
  2.500	 -0.175	 -0.025
  2.508	 -0.175	 -0.005
  2.516	 -0.165	  0.015
  2.523	 -0.175	  0.025
  2.531	 -0.185	  0.015
  2.539	 -0.205	  0.015
  2.547	 -0.185	  0.025
  2.555	 -0.185	  0.035
  2.562	 -0.185	  0.005
  2.570	 -0.165	  0.015
  2.578	 -0.175	  0.045
  2.586	 -0.195	  0.015
  2.594	 -0.165	  0.005
  2.602	 -0.185	  0.025
  2.609	 -0.195	  0.015
  2.617	 -0.165	  0.025
  2.625	 -0.175	  0.005
  2.633	 -0.175	  0.015
  2.641	 -0.175	  0.025
  2.648	 -0.185	  0.015
  2.656	 -0.185	  0.005
  2.664	 -0.195	  0.015
  2.672	 -0.205	  0.025
  2.680	 -0.125	  0.035
  2.688	 -0.125	  0.055
  2.695	 -0.145	  0.065
  2.703	 -0.095	  0.085
  2.711	 -0.025	  0.025
  2.719	 -0.035	 -0.015
  2.727	 -0.075	 -0.045
  2.734	 -0.115	 -0.015
  2.742	 -0.145	 -0.005
  2.750	 -0.175	  0.015
  2.758	 -0.215	  0.005
  2.766	 -0.225	 -0.005
  2.773	 -0.235	 -0.015
  2.781	 -0.245	 -0.015
  2.789	 -0.255	 -0.005
  2.797	 -0.245	  0.005
  2.805	 -0.235	 -0.015
  2.812	 -0.185	  0.035
  2.820	 -0.725	  0.195
  2.828	 -0.905	 -0.025
  2.836	 -0.105	 -0.565
  2.844	  1.645	 -0.285
  2.852	  2.615	  0.155
  2.859	  2.535	  0.805
  2.867	  1.825	  0.085
  2.875	  0.275	 -0.805
  2.883	 -0.345	 -0.405
  2.891	 -0.325	 -0.075
  2.898	 -0.335	 -0.045
  2.906	 -0.365	 -0.075
  2.914	 -0.375	 -0.045
  2.922	 -0.395	 -0.045
  2.930	 -0.375	 -0.045
  2.938	 -0.395	 -0.075
  2.945	 -0.355	 -0.085
  2.953	 -0.325	 -0.065
  2.961	 -0.345	 -0.115
  2.969	 -0.325	 -0.115
  2.977	 -0.285	 -0.105
  2.984	 -0.285	 -0.115
  2.992	 -0.255	 -0.125
  3.000	 -0.275	 -0.145
  3.008	 -0.295	 -0.205
  3.016	 -0.135	 -0.215
  3.023	 -0.185	 -0.225
  3.031	 -0.185	 -0.295
  3.039	 -0.185	 -0.315
  3.047	 -0.215	 -0.305
  3.055	 -0.215	 -0.315
  3.062	 -0.285	 -0.305
  3.070	 -0.295	 -0.305
  3.078	 -0.305	 -0.265
  3.086	 -0.225	 -0.255
  3.094	 -0.195	 -0.205
  3.102	 -0.155	 -0.145
  3.109	 -0.145	 -0.065
  3.117	 -0.175	 -0.055
  3.125	 -0.165	 -0.035
  3.133	 -0.205	 -0.005
  3.141	 -0.145	  0.005
  3.148	 -0.185	  0.025
  3.156	 -0.215	  0.005
  3.164	 -0.215	  0.025
  3.172	 -0.185	  0.035
  3.180	 -0.195	  0.025
  3.188	 -0.255	  0.015
  3.195	 -0.185	  0.005
  3.203	 -0.205	  0.045
  3.211	 -0.225	  0.025
  3.219	 -0.165	  0.015
  3.227	 -0.155	  0.015
  3.234	 -0.185	  0.035
  3.242	 -0.205	  0.015
  3.250	 -0.205	  0.015
  3.258	 -0.215	  0.015
  3.266	 -0.175	  0.015
  3.273	 -0.185	  0.025
  3.281	 -0.215	  0.015
  3.289	 -0.185	  0.025
  3.297	 -0.125	  0.065
  3.305	 -0.125	  0.085
  3.312	 -0.155	  0.095
  3.320	 -0.095	  0.085
  3.328	  0.005	  0.035
  3.336	 -0.065	 -0.015
  3.344	 -0.135	 -0.025
  3.352	 -0.145	  0.015
  3.359	 -0.105	  0.045
  3.367	 -0.165	  0.045
  3.375	 -0.215	  0.025
  3.383	 -0.225	  0.015
  3.391	 -0.265	  0.025
  3.398	 -0.235	  0.015
  3.406	 -0.265	  0.025
  3.414	 -0.275	  0.005
  3.422	 -0.205	  0.045
  3.430	 -0.325	  0.165
  3.438	 -0.915	  0.085
  3.445	 -0.695	 -0.225
  3.453	  0.545	 -0.545
  3.461	  2.155	 -0.155
  3.469	  2.655	  0.435
  3.477	  2.375	  0.785
  3.484	  1.055	 -0.405
  3.492	 -0.215	 -0.585
  3.500	 -0.335	 -0.175
  3.508	 -0.345	 -0.005
  3.516	 -0.375	  0.005
  3.523	 -0.365	 -0.015
  3.531	 -0.385	 -0.015
  3.539	 -0.395	 -0.015
  3.547	 -0.365	 -0.015
  3.555	 -0.375	 -0.025
  3.562	 -0.355	 -0.035
  3.570	 -0.325	 -0.025
  3.578	 -0.315	 -0.035
  3.586	 -0.275	 -0.045
  3.594	 -0.245	 -0.075
  3.602	 -0.235	 -0.085
  3.609	 -0.215	 -0.075
  3.617	 -0.225	 -0.105
  3.625	 -0.205	 -0.115
  3.633	 -0.195	 -0.145
  3.641	 -0.205	 -0.165
  3.648	 -0.185	 -0.185
  3.656	 -0.185	 -0.205
  3.664	 -0.205	 -0.225
  3.672	 -0.225	 -0.205
  3.680	 -0.215	 -0.225
  3.688	 -0.215	 -0.235
  3.695	 -0.255	 -0.215
  3.703	 -0.235	 -0.165
  3.711	 -0.185	 -0.135
  3.719	 -0.165	 -0.065
  3.727	 -0.145	 -0.045
  3.734	 -0.135	  0.015
  3.742	 -0.155	  0.055
  3.750	 -0.155	  0.025
  3.758	 -0.145	  0.045
  3.766	 -0.135	  0.065
  3.773	 -0.155	  0.045
  3.781	 -0.165	  0.035
  3.789	 -0.165	  0.045
  3.797	 -0.145	  0.055
  3.805	 -0.165	  0.045
  3.812	 -0.185	  0.035
  3.820	 -0.145	  0.065
  3.828	 -0.175	  0.055
  3.836	 -0.135	  0.035
  3.844	 -0.165	  0.025
  3.852	 -0.135	  0.055
  3.859	 -0.125	  0.055
  3.867	 -0.135	  0.055
  3.875	 -0.145	  0.035
  3.883	 -0.145	  0.045
  3.891	 -0.125	  0.055
  3.898	 -0.135	  0.035
  3.906	 -0.115	  0.055
  3.914	 -0.075	  0.095
  3.922	 -0.075	  0.125
  3.930	 -0.095	  0.115
  3.938	  0.005	  0.095
  3.945	  0.075	  0.025
  3.953	 -0.005	 -0.005
  3.961	 -0.055	 -0.005
  3.969	 -0.095	  0.015
  3.977	 -0.075	  0.045
  3.984	 -0.115	  0.055
  3.992	 -0.145	  0.035
  4.000	 -0.225	  0.035
  4.008	 -0.175	  0.005
  4.016	 -0.165	  0.005
  4.023	 -0.195	  0.005
  4.031	 -0.155	  0.005
  4.039	 -0.135	  0.025
  4.047	 -0.185	  0.165
  4.055	 -0.745	  0.155
  4.062	 -0.695	 -0.165
  4.070	  0.475	 -0.625
  4.078	  2.205	 -0.105
  4.086	  2.795	  0.455
  4.094	  2.585	  0.855
  4.102	  1.415	 -0.265
  4.109	 -0.055	 -0.675
  4.117	 -0.295	 -0.285
  4.125	 -0.265	 -0.055
  4.133	 -0.295	 -0.025
  4.141	 -0.285	 -0.025
  4.148	 -0.285	 -0.015
  4.156	 -0.305	 -0.065
  4.164	 -0.295	 -0.065
  4.172	 -0.255	 -0.045
  4.180	 -0.275	 -0.045
  4.188	 -0.275	 -0.075
  4.195	 -0.225	 -0.075
  4.203	 -0.195	 -0.075
  4.211	 -0.185	 -0.105
  4.219	 -0.175	 -0.115
  4.227	 -0.155	 -0.145
  4.234	 -0.145	 -0.145
  4.242	 -0.145	 -0.165
  4.250	 -0.115	 -0.215
  4.258	 -0.135	 -0.245
  4.266	 -0.115	 -0.255
  4.273	 -0.105	 -0.265
  4.281	 -0.165	 -0.295
  4.289	 -0.145	 -0.295
  4.297	 -0.195	 -0.275
  4.305	 -0.165	 -0.265
  4.312	 -0.125	 -0.235
  4.320	 -0.145	 -0.215
  4.328	 -0.105	 -0.165
  4.336	 -0.055	 -0.105
  4.344	 -0.075	 -0.085
  4.352	 -0.075	 -0.045
  4.359	 -0.095	 -0.015
  4.367	 -0.065	  0.005
  4.375	 -0.075	  0.025
  4.383	 -0.105	  0.005
  4.391	 -0.095	  0.015
  4.398	 -0.085	  0.025
  4.406	 -0.135	 -0.005
  4.414	 -0.125	  0.005
  4.422	 -0.095	  0.025
  4.430	 -0.115	  0.025
  4.438	 -0.095	  0.005
  4.445	 -0.115	  0.005
  4.453	 -0.105	  0.015
  4.461	 -0.105	  0.005
  4.469	 -0.105	  0.005
  4.477	 -0.165	 -0.015
  4.484	 -0.145	  0.015
  4.492	 -0.065	  0.005
  4.500	 -0.095	  0.015
  4.508	 -0.095	  0.005
  4.516	 -0.065	  0.045
  4.523	 -0.015	  0.055
  4.531	 -0.035	  0.045
  4.539	 -0.025	  0.075
  4.547	  0.085	  0.015
  4.555	  0.015	 -0.035
  4.562	 -0.045	 -0.045
  4.570	 -0.085	 -0.025
  4.578	 -0.085	  0.005
  4.586	 -0.105	  0.005
  4.594	 -0.155	 -0.035
  4.602	 -0.155	 -0.035
  4.609	 -0.155	 -0.025
  4.617	 -0.185	 -0.015
  4.625	 -0.175	 -0.065
  4.633	 -0.175	 -0.015
  4.641	 -0.135	 -0.015
  4.648	 -0.305	  0.155
  4.656	 -0.855	  0.075
  4.664	 -0.455	 -0.205
  4.672	  0.895	 -0.395
  4.680	  2.455	 -0.145
  4.688	  2.815	  0.225
  4.695	  2.545	  0.645
  4.703	  1.225	 -0.535
  4.711	 -0.125	 -0.815
  4.719	 -0.325	 -0.315
  4.727	 -0.255	 -0.055
  4.734	 -0.285	 -0.035
  4.742	 -0.305	 -0.065
  4.750	 -0.335	 -0.055
  4.758	 -0.305	 -0.065
  4.766	 -0.275	 -0.045
  4.773	 -0.275	 -0.085
  4.781	 -0.305	 -0.105
  4.789	 -0.235	 -0.095
  4.797	 -0.235	 -0.085
  4.805	 -0.215	 -0.095
  4.812	 -0.205	 -0.135
  4.820	 -0.175	 -0.135
  4.828	 -0.155	 -0.155
  4.836	 -0.135	 -0.145
  4.844	 -0.155	 -0.185
  4.852	 -0.095	 -0.215
  4.859	 -0.105	 -0.215
  4.867	 -0.155	 -0.245
  4.875	 -0.135	 -0.265
  4.883	 -0.105	 -0.265
  4.891	 -0.145	 -0.255
  4.898	 -0.135	 -0.235
  4.906	 -0.195	 -0.245
  4.914	 -0.165	 -0.205
  4.922	 -0.115	 -0.145
  4.930	 -0.105	 -0.115
  4.938	 -0.125	 -0.105
  4.945	 -0.085	 -0.065
  4.953	 -0.075	 -0.025
  4.961	 -0.075	 -0.005
  4.969	 -0.075	 -0.005
  4.977	 -0.105	 -0.015
  4.984	 -0.135	  0.005
  4.992	 -0.125	 -0.005
  5.000	 -0.115	 -0.025
  5.008	 -0.095	 -0.015
  5.016	 -0.115	  0.005
  5.023	 -0.135	  0.025
  5.031	 -0.075	 -0.015
  5.039	 -0.095	  0.005
  5.047	 -0.105	  0.015
  5.055	 -0.115	  0.005
  5.062	 -0.105	 -0.045
  5.070	 -0.105	 -0.015
  5.078	 -0.095	 -0.015
  5.086	 -0.085	 -0.015
  5.094	 -0.075	 -0.005
  5.102	 -0.095	 -0.025
  5.109	 -0.095	 -0.005
  5.117	 -0.035	  0.045
  5.125	 -0.005	  0.045
  5.133	 -0.055	  0.065
  5.141	 -0.015	  0.075
  5.148	  0.085	  0.005
  5.156	  0.045	 -0.055
  5.164	 -0.005	 -0.065
  5.172	 -0.065	 -0.035
  5.180	 -0.055	 -0.025
  5.188	 -0.055	  0.005
  5.195	 -0.085	 -0.015
  5.203	 -0.125	 -0.035
  5.211	 -0.185	 -0.045
  5.219	 -0.125	 -0.035
  5.227	 -0.145	 -0.035
  5.234	 -0.155	 -0.025
  5.242	 -0.125	 -0.035
  5.250	 -0.155	  0.125
  5.258	 -0.735	  0.205
  5.266	 -0.715	 -0.025
  5.273	  0.385	 -0.445
  5.281	  2.005	 -0.245
  5.289	  2.805	 -0.045
  5.297	  2.735	  0.485
  5.305	  1.635	 -0.635
  5.312	  0.075	 -0.845
  5.320	 -0.205	 -0.235
  5.328	 -0.215	  0.015
  5.336	 -0.225	 -0.005
  5.344	 -0.275	 -0.035
  5.352	 -0.305	 -0.045
  5.359	 -0.285	 -0.035
  5.367	 -0.275	 -0.035
  5.375	 -0.265	 -0.065
  5.383	 -0.255	 -0.055
  5.391	 -0.275	 -0.055
  5.398	 -0.225	 -0.065
  5.406	 -0.175	 -0.075
  5.414	 -0.195	 -0.085
  5.422	 -0.175	 -0.065
  5.430	 -0.125	 -0.095
  5.438	 -0.075	 -0.115
  5.445	 -0.105	 -0.135
  5.453	 -0.075	 -0.135
  5.461	 -0.125	 -0.155
  5.469	 -0.095	 -0.165
  5.477	 -0.045	 -0.185
  5.484	 -0.085	 -0.175
  5.492	 -0.145	 -0.195
  5.500	 -0.185	 -0.225
  5.508	 -0.255	 -0.215
  5.516	 -0.205	 -0.175
  5.523	 -0.175	 -0.165
  5.531	 -0.145	 -0.145
  5.539	 -0.165	 -0.105
  5.547	 -0.115	 -0.085
  5.555	 -0.085	 -0.055
  5.562	 -0.085	 -0.045
  5.570	 -0.105	 -0.035
  5.578	 -0.115	 -0.015
  5.586	 -0.105	 -0.015
  5.594	 -0.135	  0.005
  5.602	 -0.145	 -0.015
  5.609	 -0.105	  0.005
  5.617	 -0.125	 -0.015
  5.625	 -0.135	 -0.035
  5.633	 -0.115	 -0.035
  5.641	 -0.105	 -0.005
  5.648	 -0.125	 -0.025
  5.656	 -0.125	 -0.005
  5.664	 -0.165	 -0.035
  5.672	 -0.095	 -0.005
  5.680	 -0.075	 -0.005
  5.688	 -0.105	 -0.015
  5.695	 -0.125	 -0.025
  5.703	 -0.135	 -0.005
  5.711	 -0.115	 -0.015
  5.719	 -0.115	 -0.035
  5.727	 -0.115	  0.015
  5.734	 -0.035	  0.025
  5.742	 -0.045	  0.045
  5.750	 -0.065	  0.065
  5.758	  0.025	  0.025
  5.766	  0.045	 -0.025
  5.773	 -0.025	 -0.065
  5.781	 -0.075	 -0.065
  5.789	 -0.105	 -0.025
  5.797	 -0.115	 -0.035
  5.805	 -0.115	 -0.025
  5.812	 -0.145	 -0.055
  5.820	 -0.175	 -0.045
  5.828	 -0.195	  0.005
  5.836	 -0.255	 -0.055
  5.844	 -0.185	 -0.045
  5.852	 -0.155	 -0.045
  5.859	 -0.135	 -0.005
  5.867	 -0.405	  0.215
  5.875	 -0.805	  0.105
  5.883	 -0.445	 -0.335
  5.891	  1.025	 -0.445
  5.898	  2.465	 -0.275
  5.906	  2.855	  0.425
  5.914	  2.465	  0.105
  5.922	  0.995	 -0.955
  5.930	 -0.105	 -0.565
  5.938	 -0.225	 -0.085
  5.945	 -0.265	 -0.015
  5.953	 -0.295	 -0.035
  5.961	 -0.335	 -0.035
  5.969	 -0.325	 -0.035
  5.977	 -0.325	 -0.045
  5.984	 -0.335	 -0.025
  5.992	 -0.305	 -0.055
  6.000	 -0.295	 -0.075
  6.008	 -0.255	 -0.075
  6.016	 -0.255	 -0.045
  6.023	 -0.225	 -0.085
  6.031	 -0.205	 -0.075
  6.039	 -0.205	 -0.105
  6.047	 -0.185	 -0.105
  6.055	 -0.155	 -0.125
  6.062	 -0.135	 -0.155
  6.070	 -0.105	 -0.165
  6.078	 -0.095	 -0.155
  6.086	 -0.125	 -0.215
  6.094	 -0.135	 -0.235
  6.102	 -0.175	 -0.235
  6.109	 -0.185	 -0.225
  6.117	 -0.155	 -0.205
  6.125	 -0.205	 -0.215
  6.133	 -0.215	 -0.205
  6.141	 -0.195	 -0.155
  6.148	 -0.155	 -0.125
  6.156	 -0.125	 -0.085
  6.164	 -0.155	 -0.055
  6.172	 -0.115	 -0.025
  6.180	 -0.125	 -0.005
  6.188	 -0.135	  0.005
  6.195	 -0.165	 -0.005
  6.203	 -0.145	  0.005
  6.211	 -0.165	  0.005
  6.219	 -0.115	 -0.005
  6.227	 -0.115	  0.005
  6.234	 -0.115	  0.025
  6.242	 -0.135	  0.005
  6.250	 -0.145	 -0.025
  6.258	 -0.145	 -0.005
  6.266	 -0.125	  0.005
  6.273	 -0.125	 -0.005
  6.281	 -0.095	  0.005
  6.289	 -0.095	  0.005
  6.297	 -0.105	 -0.015
  6.305	 -0.115	 -0.005
  6.312	 -0.135	 -0.015
  6.320	 -0.135	 -0.005
  6.328	 -0.115	 -0.015
  6.336	 -0.145	  0.005
  6.344	 -0.085	  0.005
  6.352	 -0.045	  0.035
  6.359	 -0.065	  0.055
  6.367	 -0.065	  0.045
  6.375	  0.065	  0.025
  6.383	  0.045	 -0.025
  6.391	  0.005	 -0.045
  6.398	 -0.055	 -0.045
  6.406	 -0.095	 -0.055
  6.414	 -0.105	 -0.015
  6.422	 -0.135	  0.025
  6.430	 -0.155	 -0.025
  6.438	 -0.205	 -0.025
  6.445	 -0.195	 -0.055
  6.453	 -0.195	 -0.045
  6.461	 -0.195	 -0.035
  6.469	 -0.175	 -0.015
  6.477	 -0.195	 -0.035
  6.484	 -0.305	  0.155
  6.492	 -0.815	  0.055
  6.500	 -0.615	 -0.335
  6.508	  0.655	 -0.655
  6.516	  2.305	 -0.195
  6.523	  2.765	  0.405
  6.531	  2.475	  0.665
  6.539	  1.085	 -0.695
  6.547	 -0.155	 -0.685
  6.555	 -0.295	 -0.185
  6.562	 -0.255	 -0.035
  6.570	 -0.305	 -0.065
  6.578	 -0.315	 -0.065
  6.586	 -0.335	 -0.055
  6.594	 -0.335	 -0.065
  6.602	 -0.315	 -0.085
  6.609	 -0.315	 -0.085
  6.617	 -0.285	 -0.085
  6.625	 -0.265	 -0.105
  6.633	 -0.255	 -0.105
  6.641	 -0.255	 -0.115
  6.648	 -0.215	 -0.115
  6.656	 -0.185	 -0.145
  6.664	 -0.145	 -0.145
  6.672	 -0.165	 -0.135
  6.680	 -0.145	 -0.195
  6.688	 -0.125	 -0.215
  6.695	 -0.125	 -0.235
  6.703	 -0.095	 -0.255
  6.711	 -0.125	 -0.265
  6.719	 -0.155	 -0.295
  6.727	 -0.145	 -0.305
  6.734	 -0.205	 -0.315
  6.742	 -0.215	 -0.300
  6.750	 -0.215	 -0.270
  6.758	 -0.175	 -0.210
  6.766	 -0.195	 -0.170
  6.773	 -0.085	 -0.130
  6.781	 -0.055	 -0.100
  6.789	 -0.095	 -0.060
  6.797	 -0.085	 -0.040
  6.805	 -0.115	 -0.020
  6.812	 -0.125	 -0.010
  6.820	 -0.115	  0.000
  6.828	 -0.125	 -0.010
  6.836	 -0.145	 -0.010
  6.844	 -0.125	 -0.010
  6.852	 -0.105	  0.000
  6.859	 -0.105	  0.000
  6.867	 -0.115	  0.000
  6.875	 -0.105	 -0.010
  6.883	 -0.075	 -0.010
  6.891	 -0.085	 -0.020
  6.898	 -0.095	 -0.020
  6.906	 -0.095	 -0.020
  6.914	 -0.075	 -0.010
  6.922	 -0.085	 -0.020
  6.930	 -0.105	 -0.015
  6.938	 -0.095	 -0.015
  6.945	 -0.085	 -0.015
  6.953	 -0.085	  0.005
  6.961	 -0.095	  0.005
  6.969	 -0.115	 -0.025
  6.977	 -0.085	 -0.015
  6.984	 -0.105	  0.015
  6.992	 -0.055	  0.025
  7.000	 -0.045	  0.035
  7.008	 -0.005	  0.045
  7.016	  0.015	  0.045
  7.023	  0.065	 -0.005
  7.031	  0.035	 -0.045
  7.039	  0.015	 -0.075
  7.047	 -0.025	 -0.035
  7.055	 -0.045	 -0.015
  7.062	 -0.085	 -0.005
  7.070	 -0.075	 -0.015
  7.078	 -0.105	 -0.015
  7.086	 -0.155	 -0.035
  7.094	 -0.185	 -0.045
  7.102	 -0.145	 -0.015
  7.109	 -0.135	 -0.025
  7.117	 -0.145	 -0.035
  7.125	 -0.115	  0.035
  7.133	 -0.645	  0.135
  7.141	 -0.675	 -0.105
  7.148	  0.275	 -0.625
  7.156	  1.925	 -0.235
  7.164	  2.745	  0.175
  7.172	  2.535	  0.905
  7.180	  1.725	  0.045
  7.188	  0.045	 -0.845
  7.195	 -0.335	 -0.395
  7.203	 -0.265	 -0.095
  7.211	 -0.265	 -0.065
  7.219	 -0.285	 -0.085
  7.227	 -0.285	 -0.095
  7.234	 -0.315	 -0.075
  7.242	 -0.295	 -0.095
  7.250	 -0.275	 -0.095
  7.258	 -0.275	 -0.065
  7.266	 -0.265	 -0.115
  7.273	 -0.235	 -0.125
  7.281	 -0.225	 -0.135
  7.289	 -0.195	 -0.155
  7.297	 -0.175	 -0.155
  7.305	 -0.155	 -0.175
  7.312	 -0.145	 -0.195
  7.320	 -0.205	 -0.195
  7.328	 -0.125	 -0.235
  7.336	 -0.105	 -0.275
  7.344	 -0.105	 -0.295
  7.352	 -0.095	 -0.305
  7.359	 -0.125	 -0.295
  7.367	 -0.115	 -0.305
  7.375	 -0.145	 -0.305
  7.383	 -0.165	 -0.295
  7.391	 -0.145	 -0.265
  7.398	 -0.135	 -0.225
  7.406	 -0.085	 -0.205
  7.414	 -0.065	 -0.115
  7.422	 -0.065	 -0.095
  7.430	 -0.085	 -0.095
  7.438	 -0.095	 -0.045
  7.445	 -0.085	 -0.025
  7.453	 -0.075	 -0.005
  7.461	 -0.115	 -0.015
  7.469	 -0.115	 -0.005
  7.477	 -0.135	 -0.005
  7.484	 -0.105	 -0.015
  7.492	 -0.145	 -0.005
  7.500	 -0.115	 -0.015
  7.508	 -0.125	 -0.005
  7.516	 -0.135	  0.005
  7.523	 -0.125	 -0.025
  7.531	 -0.145	 -0.015
  7.539	 -0.085	 -0.005
  7.547	 -0.095	  0.005
  7.555	 -0.145	 -0.025
  7.562	 -0.105	 -0.025
  7.570	 -0.105	 -0.015
  7.578	 -0.105	  0.015
  7.586	 -0.145	 -0.015
  7.594	 -0.105	 -0.035
  7.602	 -0.135	 -0.015
  7.609	 -0.125	  0.005
  7.617	 -0.085	  0.015
  7.625	 -0.075	  0.015
  7.633	 -0.085	  0.025
  7.641	 -0.105	  0.055
  7.648	  0.005	  0.055
  7.656	  0.065	  0.005
  7.664	 -0.015	 -0.025
  7.672	 -0.085	 -0.045
  7.680	 -0.105	 -0.045
  7.688	 -0.105	 -0.025
  7.695	 -0.105	 -0.005
  7.703	 -0.155	 -0.025
  7.711	 -0.165	 -0.035
  7.719	 -0.185	 -0.045
  7.727	 -0.195	 -0.045
  7.734	 -0.185	 -0.025
  7.742	 -0.185	 -0.025
  7.750	 -0.165	 -0.035
  7.758	 -0.165	  0.045
  7.766	 -0.745	  0.165
  7.773	 -0.685	 -0.025
  7.781	  0.545	 -0.415
  7.789	  2.165	 -0.205
  7.797	  2.835	  0.005
  7.805	  2.635	  0.545
  7.812	  1.655	 -0.095
  7.820	 -0.015	 -0.825
  7.828	 -0.415	 -0.415
  7.836	 -0.245	 -0.085
  7.844	 -0.295	 -0.035
  7.852	 -0.335	 -0.045
  7.859	 -0.325	 -0.065
  7.867	 -0.325	 -0.045
  7.875	 -0.335	 -0.055
  7.883	 -0.315	 -0.075
  7.891	 -0.285	 -0.065
  7.898	 -0.255	 -0.075
  7.906	 -0.265	 -0.085
  7.914	 -0.265	 -0.095
  7.922	 -0.215	 -0.085
  7.930	 -0.205	 -0.115
  7.938	 -0.195	 -0.125
  7.945	 -0.165	 -0.135
  7.953	 -0.125	 -0.125
  7.961	 -0.145	 -0.175
  7.969	 -0.155	 -0.215
  7.977	 -0.145	 -0.215
  7.984	 -0.125	 -0.235
  7.992	 -0.215	 -0.255
  8.000	 -0.165	 -0.255
  8.008	 -0.175	 -0.225
  8.016	 -0.195	 -0.205
  8.023	 -0.165	 -0.175
  8.031	 -0.155	 -0.145
  8.039	 -0.125	 -0.125
  8.047	 -0.095	 -0.085
  8.055	 -0.105	 -0.055
  8.062	 -0.095	 -0.035
  8.070	 -0.135	 -0.015
  8.078	 -0.135	  0.005
  8.086	 -0.135	  0.015
  8.094	 -0.165	 -0.015
  8.102	 -0.135	 -0.005
  8.109	 -0.135	  0.015
  8.117	 -0.135	  0.015
  8.125	 -0.145	 -0.005
  8.133	 -0.145	  0.005
  8.141	 -0.135	  0.015
  8.148	 -0.145	  0.005
  8.156	 -0.125	 -0.015
  8.164	 -0.115	 -0.015
  8.172	 -0.105	 -0.005
  8.180	 -0.135	 -0.005
  8.188	 -0.115	 -0.005
  8.195	 -0.105	 -0.015
  8.203	 -0.145	  0.005
  8.211	 -0.135	  0.005
  8.219	 -0.135	  0.005
  8.227	 -0.125	 -0.025
  8.234	 -0.125	  0.005
  8.242	 -0.085	  0.055
  8.250	 -0.075	  0.055
  8.258	 -0.065	  0.075
  8.266	  0.015	  0.065
  8.273	  0.045	 -0.005
  8.281	  0.005	 -0.035
  8.289	 -0.035	 -0.055
  8.297	 -0.085	 -0.015
  8.305	 -0.115	  0.005
  8.312	 -0.115	 -0.005
  8.320	 -0.125	 -0.015
  8.328	 -0.145	 -0.015
  8.336	 -0.195	 -0.035
  8.344	 -0.205	 -0.025
  8.352	 -0.175	 -0.025
  8.359	 -0.145	 -0.015
  8.367	 -0.155	 -0.025
  8.375	 -0.265	  0.135
  8.383	 -0.755	  0.185
  8.391	 -0.545	 -0.105
  8.398	  0.695	 -0.405
  8.406	  2.195	 -0.255
  8.414	  2.715	  0.085
  8.422	  2.535	  0.455
  8.430	  1.145	 -0.745
  8.438	 -0.135	 -0.745
  8.445	 -0.245	 -0.165
  8.453	 -0.215	  0.005
  8.461	 -0.265	  0.005
  8.469	 -0.355	 -0.035
  8.477	 -0.335	 -0.035
  8.484	 -0.305	 -0.015
  8.492	 -0.315	 -0.025
  8.500	 -0.295	 -0.055
  8.508	 -0.295	 -0.065
  8.516	 -0.275	 -0.045
  8.523	 -0.255	 -0.055
  8.531	 -0.255	 -0.065
  8.539	 -0.205	 -0.065
  8.547	 -0.165	 -0.085
  8.555	 -0.145	 -0.105
  8.562	 -0.145	 -0.125
  8.570	 -0.125	 -0.135
  8.578	 -0.105	 -0.115
  8.586	 -0.115	 -0.175
  8.594	 -0.135	 -0.215
  8.602	 -0.135	 -0.215
  8.609	 -0.125	 -0.205
  8.617	 -0.185	 -0.225
  8.625	 -0.215	 -0.225
  8.633	 -0.235	 -0.215
  8.641	 -0.205	 -0.175
  8.648	 -0.195	 -0.145
  8.656	 -0.165	 -0.115
  8.664	 -0.135	 -0.065
  8.672	 -0.135	 -0.025
  8.680	 -0.125	 -0.025
  8.688	 -0.135	 -0.025
  8.695	 -0.135	  0.035
  8.703	 -0.135	  0.015
  8.711	 -0.145	 -0.005
  8.719	 -0.135	 -0.005
  8.727	 -0.135	  0.035
  8.734	 -0.135	  0.025
  8.742	 -0.125	  0.005
  8.750	 -0.115	  0.005
  8.758	 -0.145	 -0.005
  8.766	 -0.105	  0.025
  8.773	 -0.115	 -0.005
  8.781	 -0.135	  0.005
  8.789	 -0.135	  0.005
  8.797	 -0.095	  0.015
  8.805	 -0.125	  0.025
  8.812	 -0.155	 -0.005
  8.820	 -0.135	 -0.035
  8.828	 -0.135	 -0.005
  8.836	 -0.115	 -0.005
  8.844	 -0.135	 -0.015
  8.852	 -0.105	  0.035
  8.859	 -0.085	  0.005
  8.867	 -0.025	  0.025
  8.875	 -0.045	  0.055
  8.883	 -0.105	  0.075
  8.891	 -0.005	  0.085
  8.898	  0.075	  0.005
  8.906	 -0.005	 -0.025
  8.914	 -0.045	 -0.065
  8.922	 -0.105	 -0.025
  8.930	 -0.095	 -0.015
  8.938	 -0.125	  0.025
  8.945	 -0.095	 -0.005
  8.953	 -0.135	 -0.015
  8.961	 -0.205	 -0.015
  8.969	 -0.195	 -0.035
  8.977	 -0.185	 -0.015
  8.984	 -0.175	 -0.015
  8.992	 -0.185	 -0.035
  9.000	 -0.145	  0.025
  9.008	 -0.675	  0.215
  9.016	 -0.765	 -0.045
  9.023	  0.335	 -0.585
  9.031	  2.115	 -0.325
  9.039	  2.855	  0.125
  9.047	  2.615	  0.635
  9.055	  1.305	 -0.575
  9.062	 -0.095	 -0.825
  9.070	 -0.265	 -0.215
  9.078	 -0.265	 -0.015
  9.086	 -0.285	 -0.025
  9.094	 -0.325	 -0.045
  9.102	 -0.355	 -0.025
  9.109	 -0.305	 -0.055
  9.117	 -0.325	 -0.055
  9.125	 -0.305	 -0.045
  9.133	 -0.305	 -0.085
  9.141	 -0.285	 -0.055
  9.148	 -0.245	 -0.095
  9.156	 -0.235	 -0.105
  9.164	 -0.205	 -0.085
  9.172	 -0.225	 -0.115
  9.180	 -0.135	 -0.145
  9.188	 -0.175	 -0.145
  9.195	 -0.125	 -0.165
  9.203	 -0.075	 -0.165
  9.211	 -0.085	 -0.195
  9.219	 -0.095	 -0.215
  9.227	 -0.105	 -0.255
  9.234	 -0.145	 -0.235
  9.242	 -0.115	 -0.275
  9.250	 -0.185	 -0.275
  9.258	 -0.195	 -0.265
  9.266	 -0.195	 -0.215
  9.273	 -0.205	 -0.215
  9.281	 -0.135	 -0.175
  9.289	 -0.105	 -0.085
  9.297	 -0.135	 -0.075
  9.305	 -0.105	 -0.065
  9.312	 -0.135	 -0.035
  9.320	 -0.135	 -0.015
  9.328	 -0.155	  0.005
  9.336	 -0.135	  0.005
  9.344	 -0.125	 -0.035
  9.352	 -0.135	 -0.025
  9.359	 -0.185	  0.005
  9.367	 -0.165	  0.005
  9.375	 -0.125	 -0.025
  9.383	 -0.145	 -0.015
  9.391	 -0.115	  0.005
  9.398	 -0.125	  0.015
  9.406	 -0.165	  0.005
  9.414	 -0.125	 -0.015
  9.422	 -0.155	 -0.015
  9.430	 -0.145	 -0.005
  9.438	 -0.165	 -0.035
  9.445	 -0.145	  0.015
  9.453	 -0.135	  0.005
  9.461	 -0.155	 -0.025
  9.469	 -0.155	 -0.025
  9.477	 -0.175	 -0.015
  9.484	 -0.145	 -0.005
  9.492	 -0.175	 -0.005
  9.500	 -0.145	 -0.015
  9.508	 -0.095	  0.015
  9.516	 -0.055	  0.045
  9.523	 -0.085	  0.055
  9.531	 -0.055	  0.045
  9.539	  0.055	  0.005
  9.547	 -0.045	 -0.005
  9.555	 -0.075	 -0.045
  9.562	 -0.105	 -0.035
  9.570	 -0.105	 -0.015
  9.578	 -0.135	  0.025
  9.586	 -0.195	  0.005
  9.594	 -0.195	 -0.035
  9.602	 -0.205	 -0.035
  9.609	 -0.185	 -0.015
  9.617	 -0.195	 -0.025
  9.625	 -0.205	 -0.015
  9.633	 -0.195	 -0.035
  9.641	 -0.175	  0.025
  9.648	 -0.565	  0.195
  9.656	 -0.735	 -0.055
  9.664	  0.045	 -0.575
  9.672	  1.855	 -0.335
  9.680	  2.745	  0.145
  9.688	  2.595	  0.745
  9.695	  1.645	 -0.155
  9.703	  0.085	 -0.725
  9.711	 -0.305	 -0.365
  9.719	 -0.275	 -0.095
  9.727	 -0.285	 -0.045
  9.734	 -0.335	 -0.055
  9.742	 -0.355	 -0.055
  9.750	 -0.355	 -0.075
  9.758	 -0.335	 -0.085
  9.766	 -0.355	 -0.055
  9.773	 -0.315	 -0.105
  9.781	 -0.295	 -0.095
  9.789	 -0.275	 -0.115
  9.797	 -0.235	 -0.125
  9.805	 -0.235	 -0.135
  9.812	 -0.225	 -0.135
  9.820	 -0.205	 -0.155
  9.828	 -0.185	 -0.185
  9.836	 -0.185	 -0.205
  9.844	 -0.165	 -0.235
  9.852	 -0.125	 -0.275
  9.859	 -0.135	 -0.275
  9.867	 -0.135	 -0.315
  9.875	 -0.145	 -0.345
  9.883	 -0.145	 -0.315
  9.891	 -0.175	 -0.325
  9.898	 -0.205	 -0.325
  9.906	 -0.185	 -0.295
  9.914	 -0.205	 -0.265
  9.922	 -0.125	 -0.205
  9.930	 -0.105	 -0.145
  9.938	 -0.115	 -0.105
  9.945	 -0.095	 -0.065
  9.953	 -0.125	 -0.045
  9.961	 -0.115	 -0.025
  9.969	 -0.135	 -0.015
  9.977	 -0.155	 -0.015
  9.984	 -0.155	  0.005
  9.992	 -0.165	 -0.005
 10.000	 -0.145	 -0.015
 10.008	 -0.125	  0.005
 10.016	 -0.145	 -0.005
 10.023	 -0.155	 -0.005
 10.031	 -0.165	 -0.005
 10.039	 -0.145	 -0.015
 10.047	 -0.185	 -0.005
 10.055	 -0.155	 -0.005
 10.062	 -0.135	  0.025
 10.070	 -0.145	 -0.015
 10.078	 -0.135	 -0.005
 10.086	 -0.145	 -0.005
 10.094	 -0.165	 -0.015
 10.102	 -0.165	 -0.005
 10.109	 -0.165	 -0.005
 10.117	 -0.135	 -0.015
 10.125	 -0.145	 -0.025
 10.133	 -0.175	 -0.005
 10.141	 -0.165	  0.025
 10.148	 -0.125	 -0.005
 10.156	 -0.135	  0.015
 10.164	 -0.155	  0.045
 10.172	 -0.095	  0.065
 10.180	 -0.055	  0.075
 10.188	  0.025	 -0.005
 10.195	 -0.015	 -0.025
 10.203	 -0.095	 -0.045
 10.211	 -0.135	 -0.035
 10.219	 -0.085	 -0.025
 10.227	 -0.135	  0.005
 10.234	 -0.145	 -0.015
 10.242	 -0.195	 -0.025
 10.250	 -0.215	 -0.015
 10.258	 -0.255	 -0.025
 10.266	 -0.235	 -0.025
 10.273	 -0.185	 -0.035
 10.281	 -0.205	 -0.035
 10.289	 -0.215	  0.065
 10.297	 -0.645	  0.145
 10.305	 -0.725	 -0.115
 10.312	  0.095	 -0.565
 10.320	  1.815	 -0.265
 10.328	  2.635	  0.135
 10.336	  2.475	  0.835
 10.344	  1.575	  0.145
 10.352	 -0.035	 -0.815
 10.359	 -0.395	 -0.425
 10.367	 -0.325	 -0.105
 10.375	 -0.325	 -0.065
 10.383	 -0.335	 -0.075
 10.391	 -0.345	 -0.055
 10.398	 -0.355	 -0.055
 10.406	 -0.365	 -0.085
 10.414	 -0.355	 -0.085
 10.422	 -0.335	 -0.105
 10.430	 -0.295	 -0.115
 10.438	 -0.295	 -0.135
 10.445	 -0.295	 -0.135
 10.453	 -0.265	 -0.135
 10.461	 -0.235	 -0.145
 10.469	 -0.235	 -0.175
 10.477	 -0.215	 -0.185
 10.484	 -0.205	 -0.195
 10.492	 -0.205	 -0.235
 10.500	 -0.205	 -0.275
 10.508	 -0.175	 -0.285
 10.516	 -0.155	 -0.285
 10.523	 -0.185	 -0.305
 10.531	 -0.205	 -0.325
 10.539	 -0.205	 -0.305
 10.547	 -0.235	 -0.275
 10.555	 -0.215	 -0.265
 10.562	 -0.215	 -0.255
 10.570	 -0.145	 -0.195
 10.578	 -0.145	 -0.135
 10.586	 -0.125	 -0.105
 10.594	 -0.165	 -0.085
 10.602	 -0.155	 -0.045
 10.609	 -0.195	 -0.055
 10.617	 -0.195	 -0.025
 10.625	 -0.215	 -0.025
 10.633	 -0.165	 -0.005
 10.641	 -0.215	  0.005
 10.648	 -0.195	 -0.015
 10.656	 -0.185	 -0.045
 10.664	 -0.155	 -0.025
 10.672	 -0.175	 -0.005
 10.680	 -0.175	 -0.015
 10.688	 -0.215	 -0.005
 10.695	 -0.185	 -0.045
 10.703	 -0.195	 -0.015
 10.711	 -0.195	 -0.015
 10.719	 -0.215	 -0.045
 10.727	 -0.205	 -0.025
 10.734	 -0.155	 -0.015
 10.742	 -0.155	 -0.025
 10.750	 -0.215	 -0.035
 10.758	 -0.235	 -0.035
 10.766	 -0.205	 -0.015
 10.773	 -0.195	 -0.045
 10.781	 -0.185	 -0.055
 10.789	 -0.175	 -0.025
 10.797	 -0.135	  0.015
 10.805	 -0.105	  0.035
 10.812	 -0.155	  0.025
 10.820	 -0.095	  0.045
 10.828	  0.005	  0.005
 10.836	 -0.085	 -0.035
 10.844	 -0.095	 -0.085
 10.852	 -0.135	 -0.065
 10.859	 -0.125	 -0.025
 10.867	 -0.175	 -0.025
 10.875	 -0.205	 -0.055
 10.883	 -0.215	 -0.035
 10.891	 -0.255	 -0.045
 10.898	 -0.265	 -0.055
 10.906	 -0.275	 -0.065
 10.914	 -0.215	 -0.045
 10.922	 -0.225	 -0.045
 10.930	 -0.195	  0.015
 10.938	 -0.645	  0.205
 10.945	 -0.755	  0.015
 10.953	  0.105	 -0.375
 10.961	  1.695	 -0.255
 10.969	  2.675	 -0.135
 10.977	  2.645	  0.455
 10.984	  2.185	  0.285
 10.992	  0.435	 -0.865
 11.000	 -0.365	 -0.575
 11.008	 -0.295	 -0.115
 11.016	 -0.375	 -0.025
 11.023	 -0.375	 -0.055
 11.031	 -0.355	 -0.055
 11.039	 -0.355	 -0.035
 11.047	 -0.395	 -0.035
 11.055	 -0.365	 -0.075
 11.062	 -0.325	 -0.085
 11.070	 -0.295	 -0.065
 11.078	 -0.295	 -0.065
 11.086	 -0.285	 -0.075
 11.094	 -0.275	 -0.105
 11.102	 -0.245	 -0.105
 11.109	 -0.255	 -0.105
 11.117	 -0.205	 -0.125
 11.125	 -0.225	 -0.145
 11.133	 -0.215	 -0.165
 11.141	 -0.155	 -0.165
 11.148	 -0.135	 -0.205
 11.156	 -0.155	 -0.235
 11.164	 -0.165	 -0.255
 11.172	 -0.175	 -0.245
 11.180	 -0.205	 -0.255
 11.188	 -0.205	 -0.245
 11.195	 -0.245	 -0.235
 11.203	 -0.215	 -0.205
 11.211	 -0.215	 -0.175
 11.219	 -0.175	 -0.125
 11.227	 -0.135	 -0.095
 11.234	 -0.135	 -0.055
 11.242	 -0.145	 -0.045
 11.250	 -0.145	 -0.025
 11.258	 -0.185	 -0.015
 11.266	 -0.195	 -0.005
 11.273	 -0.195	  0.015
 11.281	 -0.165	  0.005
 11.289	 -0.175	 -0.005
 11.297	 -0.175	 -0.005
 11.305	 -0.185	  0.015
 11.312	 -0.215	  0.005
 11.320	 -0.165	 -0.005
 11.328	 -0.155	 -0.005
 11.336	 -0.175	 -0.015
 11.344	 -0.205	 -0.015
 11.352	 -0.175	 -0.015
 11.359	 -0.175	 -0.015
 11.367	 -0.155	  0.005
 11.375	 -0.175	 -0.005
 11.383	 -0.185	 -0.015
 11.391	 -0.195	 -0.015
 11.398	 -0.175	 -0.015
 11.406	 -0.175	 -0.015
 11.414	 -0.205	 -0.015
 11.422	 -0.145	  0.005
 11.430	 -0.105	  0.045
 11.438	 -0.105	  0.055
 11.445	 -0.115	  0.075
 11.453	 -0.015	  0.075
 11.461	 -0.025	  0.005
 11.469	 -0.095	 -0.065
 11.477	 -0.125	 -0.065
 11.484	 -0.145	 -0.045
 11.492	 -0.165	 -0.015
 11.500	 -0.195	 -0.005
 11.508	 -0.175	 -0.025
 11.516	 -0.225	 -0.025
 11.523	 -0.225	 -0.025
 11.531	 -0.235	 -0.045
 11.539	 -0.235	 -0.025
 11.547	 -0.225	 -0.015
 11.555	 -0.205	 -0.005
 11.562	 -0.465	  0.185
 11.570	 -0.885	  0.095
 11.578	 -0.295	 -0.305
 11.586	  1.335	 -0.325
 11.594	  2.625	 -0.215
 11.602	  2.755	  0.405
 11.609	  2.255	  0.085
 11.617	  0.485	 -0.905
 11.625	 -0.325	 -0.495
 11.633	 -0.255	 -0.065
 11.641	 -0.285	  0.005
 11.648	 -0.335	 -0.005
 11.656	 -0.375	 -0.025
 11.664	 -0.415	 -0.035
 11.672	 -0.375	 -0.015
 11.680	 -0.345	 -0.025
 11.688	 -0.335	 -0.055
 11.695	 -0.355	 -0.065
 11.703	 -0.315	 -0.035
 11.711	 -0.265	 -0.055
 11.719	 -0.245	 -0.065
 11.727	 -0.225	 -0.075
 11.734	 -0.215	 -0.075
 11.742	 -0.235	 -0.105
 11.750	 -0.185	 -0.115
 11.758	 -0.165	 -0.145
 11.766	 -0.165	 -0.155
 11.773	 -0.135	 -0.175
 11.781	 -0.145	 -0.185
 11.789	 -0.145	 -0.215
 11.797	 -0.165	 -0.215
 11.805	 -0.195	 -0.225
 11.812	 -0.225	 -0.205
 11.820	 -0.235	 -0.215
 11.828	 -0.235	 -0.155
 11.836	 -0.215	 -0.135
 11.844	 -0.205	 -0.115
 11.852	 -0.185	 -0.065
 11.859	 -0.175	 -0.025
 11.867	 -0.125	 -0.005
 11.875	 -0.165	 -0.005
 11.883	 -0.185	  0.005
 11.891	 -0.205	  0.025
 11.898	 -0.185	  0.035
 11.906	 -0.175	  0.045
 11.914	 -0.185	  0.005
 11.922	 -0.165	  0.025
 11.930	 -0.185	  0.025
 11.938	 -0.165	  0.015
 11.945	 -0.175	  0.015
 11.953	 -0.165	  0.025
 11.961	 -0.155	  0.025
 11.969	 -0.165	  0.005
 11.977	 -0.135	  0.005
 11.984	 -0.185	  0.025
 11.992	 -0.165	  0.025
 12.000	 -0.165	  0.015
 12.008	 -0.145	  0.005
 12.016	 -0.125	  0.005
 12.023	 -0.165	  0.015
 12.031	 -0.175	  0.005
 12.039	 -0.195	 -0.005
 12.047	 -0.145	  0.015
 12.055	 -0.125	  0.035
 12.062	 -0.085	  0.045
 12.070	 -0.105	  0.085
 12.078	 -0.085	  0.095
 12.086	  0.005	  0.065
 12.094	 -0.005	 -0.005
 12.102	 -0.045	 -0.035
 12.109	 -0.085	 -0.025
 12.117	 -0.135	 -0.005
 12.125	 -0.125	  0.015
 12.133	 -0.135	  0.025
 12.141	 -0.155	 -0.005
 12.148	 -0.235	 -0.015
 12.156	 -0.255	 -0.015
 12.164	 -0.215	 -0.005
 12.172	 -0.195	  0.005
 12.180	 -0.205	 -0.005
 12.188	 -0.195	  0.005
 12.195	 -0.325	  0.185
 12.203	 -0.765	  0.115
 12.211	 -0.545	 -0.265
 12.219	  0.825	 -0.605
 12.227	  2.475	 -0.225
 12.234	  2.855	  0.515
 12.242	  2.355	  0.485
 12.250	  0.785	 -0.785
 12.258	 -0.235	 -0.605
 12.266	 -0.275	 -0.075
 12.273	 -0.295	  0.005
 12.281	 -0.335	 -0.025
 12.289	 -0.365	 -0.035
 12.297	 -0.375	 -0.025
 12.305	 -0.355	 -0.025
 12.312	 -0.355	 -0.055
 12.320	 -0.305	 -0.045
 12.328	 -0.285	 -0.045
 12.336	 -0.275	 -0.075
 12.344	 -0.265	 -0.075
 12.352	 -0.255	 -0.065
 12.359	 -0.225	 -0.075
 12.367	 -0.215	 -0.095
 12.375	 -0.155	 -0.115
 12.383	 -0.155	 -0.125
 12.391	 -0.115	 -0.145
 12.398	 -0.115	 -0.165
 12.406	 -0.125	 -0.195
 12.414	 -0.095	 -0.225
 12.422	 -0.085	 -0.245
 12.430	 -0.125	 -0.265
 12.438	 -0.125	 -0.275
 12.445	 -0.135	 -0.265
 12.453	 -0.175	 -0.235
 12.461	 -0.155	 -0.205
 12.469	 -0.115	 -0.175
 12.477	 -0.095	 -0.135
 12.484	 -0.085	 -0.085
 12.492	 -0.115	 -0.055
 12.500	 -0.095	 -0.025
 12.508	 -0.105	  0.005
 12.516	 -0.125	  0.005
 12.523	 -0.125	  0.025
 12.531	 -0.185	  0.015
 12.539	 -0.115	  0.015
 12.547	 -0.105	  0.025
 12.555	 -0.115	  0.025
 12.562	 -0.115	  0.015
 12.570	 -0.145	  0.015
 12.578	 -0.115	  0.025
 12.586	 -0.115	  0.025
 12.594	 -0.115	  0.005
 12.602	 -0.145	 -0.005
 12.609	 -0.125	  0.025
 12.617	 -0.105	  0.015
 12.625	 -0.115	  0.015
 12.633	 -0.135	  0.005
 12.641	 -0.185	  0.005
 12.648	 -0.125	  0.015
 12.656	 -0.115	  0.005
 12.664	 -0.105	  0.005
 12.672	 -0.185	  0.015
 12.680	 -0.055	  0.035
 12.688	 -0.045	  0.045
 12.695	 -0.075	  0.075
 12.703	 -0.035	  0.085
 12.711	  0.055	  0.025
 12.719	  0.025	 -0.035
 12.727	 -0.035	 -0.055
 12.734	 -0.115	 -0.015
 12.742	 -0.115	 -0.005
 12.750	 -0.135	  0.035
 12.758	 -0.105	 -0.005
 12.766	 -0.155	 -0.015
 12.773	 -0.215	 -0.015
 12.781	 -0.225	 -0.025
 12.789	 -0.215	 -0.015
 12.797	 -0.175	 -0.005
 12.805	 -0.145	 -0.025
 12.812	 -0.155	  0.055
 12.820	 -0.675	  0.195
 12.828	 -0.785	 -0.045
 12.836	  0.045	 -0.505
 12.844	  1.695	 -0.255
 12.852	  2.735	  0.055
 12.859	  2.635	  0.725
 12.867	  2.155	  0.395
 12.875	  0.425	 -0.825
 12.883	 -0.415	 -0.565
 12.891	 -0.345	 -0.125
 12.898	 -0.305	 -0.035
 12.906	 -0.345	 -0.065
 12.914	 -0.355	 -0.075
 12.922	 -0.355	 -0.075
 12.930	 -0.365	 -0.075
 12.938	 -0.325	 -0.075
 12.945	 -0.305	 -0.095
 12.953	 -0.305	 -0.075
 12.961	 -0.305	 -0.095
 12.969	 -0.285	 -0.125
 12.977	 -0.255	 -0.135
 12.984	 -0.255	 -0.125
 12.992	 -0.275	 -0.155
 13.000	 -0.195	 -0.185
 13.008	 -0.195	 -0.205
 13.016	 -0.155	 -0.205
 13.023	 -0.165	 -0.235
 13.031	 -0.165	 -0.265
 13.039	 -0.175	 -0.285
 13.047	 -0.175	 -0.295
 13.055	 -0.205	 -0.305
 13.062	 -0.225	 -0.305
 13.070	 -0.215	 -0.285
 13.078	 -0.235	 -0.265
 13.086	 -0.205	 -0.215
 13.094	 -0.165	 -0.195
 13.102	 -0.165	 -0.145
 13.109	 -0.135	 -0.085
 13.117	 -0.165	 -0.065
 13.125	 -0.155	 -0.055
 13.133	 -0.125	 -0.035
 13.141	 -0.125	 -0.025
 13.148	 -0.185	 -0.025
 13.156	 -0.225	 -0.035
 13.164	 -0.175	 -0.025
 13.172	 -0.165	 -0.005
 13.180	 -0.185	 -0.015
 13.188	 -0.185	 -0.035
 13.195	 -0.195	 -0.025
 13.203	 -0.185	 -0.015
 13.211	 -0.195	 -0.015
 13.219	 -0.145	 -0.015
 13.227	 -0.175	 -0.015
 13.234	 -0.205	 -0.005
 13.242	 -0.155	 -0.025
 13.250	 -0.145	 -0.055
 13.258	 -0.205	 -0.035
 13.266	 -0.175	 -0.025
 13.273	 -0.165	 -0.025
 13.281	 -0.215	 -0.055
 13.289	 -0.175	 -0.035
 13.297	 -0.165	 -0.005
 13.305	 -0.105	  0.035
 13.312	 -0.135	  0.035
 13.320	 -0.095	  0.045
 13.328	  0.025	  0.045
 13.336	 -0.035	 -0.025
 13.344	 -0.095	 -0.085
 13.352	 -0.105	 -0.065
 13.359	 -0.155	 -0.035
 13.367	 -0.145	 -0.025
 13.375	 -0.175	 -0.025
 13.383	 -0.205	 -0.045
 13.391	 -0.215	 -0.035
 13.398	 -0.245	 -0.045
 13.406	 -0.215	 -0.045
 13.414	 -0.235	 -0.035
 13.422	 -0.195	 -0.025
 13.430	 -0.205	 -0.035
 13.438	 -0.325	  0.125
 13.445	 -0.885	  0.155
 13.453	 -0.635	 -0.105
 13.461	  0.665	 -0.455
 13.469	  2.325	 -0.255
 13.477	  2.855	  0.095
 13.484	  2.585	  0.485
 13.492	  1.305	 -0.625
 13.500	 -0.105	 -0.835
 13.508	 -0.345	 -0.275
 13.516	 -0.275	 -0.025
 13.523	 -0.325	 -0.025
 13.531	 -0.385	 -0.055
 13.539	 -0.405	 -0.045
 13.547	 -0.375	 -0.035
 13.555	 -0.365	 -0.045
 13.562	 -0.355	 -0.065
 13.570	 -0.285	 -0.055
 13.578	 -0.285	 -0.055
 13.586	 -0.285	 -0.085
 13.594	 -0.285	 -0.085
 13.602	 -0.265	 -0.105
 13.609	 -0.225	 -0.095
 13.617	 -0.235	 -0.105
 13.625	 -0.195	 -0.125
 13.633	 -0.195	 -0.135
 13.641	 -0.185	 -0.155
 13.648	 -0.115	 -0.185
 13.656	 -0.135	 -0.195
 13.664	 -0.145	 -0.205
 13.672	 -0.195	 -0.215
 13.680	 -0.185	 -0.235
 13.688	 -0.295	 -0.245
 13.695	 -0.275	 -0.235
 13.703	 -0.235	 -0.205
 13.711	 -0.265	 -0.175
 13.719	 -0.255	 -0.175
 13.727	 -0.175	 -0.125
 13.734	 -0.125	 -0.085
 13.742	 -0.145	 -0.065
 13.750	 -0.155	 -0.055
 13.758	 -0.155	 -0.045
 13.766	 -0.145	 -0.015
 13.773	 -0.195	 -0.015
 13.781	 -0.185	 -0.025
 13.789	 -0.205	 -0.025
 13.797	 -0.185	 -0.025
 13.805	 -0.245	 -0.035
 13.812	 -0.215	 -0.045
 13.820	 -0.175	 -0.035
 13.828	 -0.185	 -0.025
 13.836	 -0.155	 -0.025
 13.844	 -0.175	 -0.035
 13.852	 -0.175	 -0.045
 13.859	 -0.165	 -0.035
 13.867	 -0.175	 -0.035
 13.875	 -0.185	 -0.055
 13.883	 -0.185	 -0.065
 13.891	 -0.185	 -0.055
 13.898	 -0.195	 -0.035
 13.906	 -0.195	 -0.045
 13.914	 -0.185	 -0.055
 13.922	 -0.125	  0.005
 13.930	 -0.125	  0.005
 13.938	 -0.175	 -0.005
 13.945	 -0.065	  0.015
 13.953	 -0.005	 -0.045
 13.961	 -0.105	 -0.085
 13.969	 -0.145	 -0.095
 13.977	 -0.165	 -0.075
 13.984	 -0.155	 -0.055
 13.992	 -0.195	 -0.055
 14.000	 -0.225	 -0.065
 14.008	 -0.245	 -0.075
 14.016	 -0.275	 -0.055
 14.023	 -0.285	 -0.055
 14.031	 -0.265	 -0.065
 14.039	 -0.265	 -0.075
 14.047	 -0.195	 -0.035
 14.055	 -0.445	  0.135
 14.062	 -0.905	  0.065
 14.070	 -0.425	 -0.355
 14.078	  1.225	 -0.465
 14.086	  2.635	 -0.225
 14.094	  2.955	  0.375
 14.102	  2.415	  0.025
 14.109	  0.705	 -0.885
 14.117	 -0.275	 -0.585
 14.125	 -0.315	 -0.115
 14.133	 -0.325	 -0.025
 14.141	 -0.365	 -0.025
 14.148	 -0.415	 -0.065
 14.156	 -0.405	 -0.075
 14.164	 -0.405	 -0.055
 14.172	 -0.395	 -0.075
 14.180	 -0.335	 -0.095
 14.188	 -0.335	 -0.095
 14.195	 -0.365	 -0.095
 14.203	 -0.325	 -0.085
 14.211	 -0.265	 -0.115
 14.219	 -0.295	 -0.125
 14.227	 -0.255	 -0.125
 14.234	 -0.205	 -0.135
 14.242	 -0.175	 -0.155
 14.250	 -0.205	 -0.185
 14.258	 -0.165	 -0.185
 14.266	 -0.145	 -0.185
 14.273	 -0.165	 -0.245
 14.281	 -0.175	 -0.255
 14.289	 -0.185	 -0.265
 14.297	 -0.205	 -0.255
 14.305	 -0.235	 -0.255
 14.312	 -0.245	 -0.265
 14.320	 -0.225	 -0.225
 14.328	 -0.215	 -0.165
 14.336	 -0.235	 -0.165
 14.344	 -0.155	 -0.115
 14.352	 -0.135	 -0.085
 14.359	 -0.135	 -0.065
 14.367	 -0.165	 -0.055
 14.375	 -0.175	 -0.045
 14.383	 -0.185	 -0.015
 14.391	 -0.175	 -0.015
 14.398	 -0.185	 -0.035
 14.406	 -0.205	 -0.015
 14.414	 -0.155	 -0.045
 14.422	 -0.155	 -0.015
 14.430	 -0.155	 -0.025
 14.438	 -0.175	 -0.045
 14.445	 -0.175	 -0.045
 14.453	 -0.145	 -0.005
 14.461	 -0.135	 -0.045
 14.469	 -0.135	 -0.045
 14.477	 -0.135	 -0.025
 14.484	 -0.115	 -0.015
 14.492	 -0.155	 -0.055
 14.500	 -0.125	 -0.045
 14.508	 -0.135	 -0.035
 14.516	 -0.155	 -0.035
 14.523	 -0.135	 -0.035
 14.531	 -0.125	 -0.045
 14.539	 -0.105	 -0.025
 14.547	 -0.065	  0.015
 14.555	 -0.055	  0.025
 14.562	 -0.075	  0.025
 14.570	 -0.005	  0.015
 14.578	 -0.005	 -0.045
 14.586	 -0.035	 -0.075
 14.594	 -0.075	 -0.095
 14.602	 -0.095	 -0.065
 14.609	 -0.095	 -0.025
 14.617	 -0.135	 -0.035
 14.625	 -0.125	 -0.055
 14.633	 -0.155	 -0.045
 14.641	 -0.175	 -0.065
 14.648	 -0.165	 -0.055
 14.656	 -0.175	 -0.045
 14.664	 -0.155	 -0.065
 14.672	 -0.125	 -0.065
 14.680	 -0.185	  0.085
 14.688	 -0.655	  0.115
 14.695	 -0.605	 -0.205
 14.703	  0.505	 -0.645
 14.711	  1.815	 -0.215
 14.719	  2.175	  0.375
 14.727	  1.925	  0.565
 14.734	  0.775	 -0.785
 14.742	 -0.125	 -0.685
 14.750	 -0.225	 -0.195
 14.758	 -0.215	 -0.055
 14.766	 -0.255	 -0.075
 14.773	 -0.315	 -0.075
 14.781	 -0.335	 -0.085
 14.789	 -0.315	 -0.085
 14.797	 -0.305	 -0.095
 14.805	 -0.315	 -0.105
 14.812	 -0.295	 -0.105
 14.820	 -0.285	 -0.135
 14.828	 -0.285	 -0.145
 14.836	 -0.215	 -0.155
 14.844	 -0.205	 -0.165
 14.852	 -0.195	 -0.175
 14.859	 -0.215	 -0.175
 14.867	 -0.205	 -0.215
 14.875	 -0.165	 -0.265
 14.883	 -0.175	 -0.265
 14.891	 -0.125	 -0.275
 14.898	 -0.155	 -0.285
 14.906	 -0.195	 -0.325
 14.914	 -0.185	 -0.315
 14.922	 -0.185	 -0.315
 14.930	 -0.145	 -0.295
 14.938	 -0.185	 -0.265
 14.945	 -0.175	 -0.245
 14.953	 -0.125	 -0.195
 14.961	 -0.115	 -0.145
 14.969	 -0.125	 -0.115
 14.977	 -0.115	 -0.075
 14.984	 -0.135	 -0.035
 14.992	 -0.165	 -0.045
 15.000	 -0.175	 -0.035
 15.008	 -0.165	 -0.025
 15.016	 -0.145	 -0.015
 15.023	 -0.195	 -0.005
 15.031	 -0.215	 -0.025
 15.039	 -0.195	 -0.025
 15.047	 -0.175	 -0.015
 15.055	 -0.155	 -0.025
 15.062	 -0.205	 -0.025
 15.070	 -0.165	 -0.015
 15.078	 -0.155	 -0.015
 15.086	 -0.165	 -0.025
 15.094	 -0.165	 -0.035
 15.102	 -0.185	 -0.025
 15.109	 -0.155	 -0.025
 15.117	 -0.175	 -0.015
 15.125	 -0.175	 -0.015
 15.133	 -0.215	 -0.035
 15.141	 -0.175	 -0.025
 15.148	 -0.155	 -0.035
 15.156	 -0.165	 -0.005
 15.164	 -0.125	  0.015
 15.172	 -0.115	  0.035
 15.180	 -0.055	  0.025
 15.188	  0.025	 -0.035
 15.195	 -0.045	 -0.075
 15.203	 -0.135	 -0.065
 15.211	 -0.155	 -0.065
 15.219	 -0.145	 -0.065
 15.227	 -0.255	 -0.035
 15.234	 -0.165	 -0.035
 15.242	 -0.195	 -0.045
 15.250	 -0.245	 -0.055
 15.258	 -0.245	 -0.065
 15.266	 -0.235	 -0.055
 15.273	 -0.255	 -0.065
 15.281	 -0.225	 -0.055
 15.289	 -0.235	  0.025
 15.297	 -0.825	  0.135
 15.305	 -0.755	 -0.085
 15.312	  0.335	 -0.515
 15.320	  1.975	 -0.245
 15.328	  2.725	 -0.035
 15.336	  2.485	  0.625
 15.344	  1.745	  0.185
 15.352	  0.045	 -0.845
 15.359	 -0.445	 -0.485
 15.367	 -0.325	 -0.105
 15.375	 -0.345	 -0.055
 15.383	 -0.375	 -0.075
 15.391	 -0.385	 -0.055
 15.398	 -0.395	 -0.085
 15.406	 -0.375	 -0.095
 15.414	 -0.345	 -0.105
 15.422	 -0.325	 -0.085
 15.430	 -0.335	 -0.105
 15.438	 -0.315	 -0.115
 15.445	 -0.285	 -0.115
 15.453	 -0.255	 -0.115
 15.461	 -0.275	 -0.145
 15.469	 -0.275	 -0.175
 15.477	 -0.225	 -0.175
 15.484	 -0.205	 -0.175
 15.492	 -0.225	 -0.215
 15.500	 -0.215	 -0.245
 15.508	 -0.195	 -0.265
 15.516	 -0.175	 -0.265
 15.523	 -0.195	 -0.285
 15.531	 -0.245	 -0.285
 15.539	 -0.225	 -0.265
 15.547	 -0.245	 -0.285
 15.555	 -0.235	 -0.245
 15.562	 -0.215	 -0.215
 15.570	 -0.155	 -0.145
 15.578	 -0.135	 -0.125
 15.586	 -0.155	 -0.075
 15.594	 -0.155	 -0.055
 15.602	 -0.125	 -0.005
 15.609	 -0.175	  0.005
 15.617	 -0.195	 -0.025
 15.625	 -0.175	 -0.025
 15.633	 -0.175	 -0.005
 15.641	 -0.175	  0.005
 15.648	 -0.175	 -0.005
 15.656	 -0.215	  0.005
 15.664	 -0.185	 -0.005
 15.672	 -0.155	 -0.005
 15.680	 -0.195	 -0.015
 15.688	 -0.175	 -0.015
 15.695	 -0.175	 -0.015
 15.703	 -0.185	  0.005
 15.711	 -0.155	  0.015
 15.719	 -0.205	 -0.015
 15.727	 -0.185	 -0.035
 15.734	 -0.175	  0.005
 15.742	 -0.145	 -0.015
 15.750	 -0.225	 -0.015
 15.758	 -0.165	 -0.005
 15.766	 -0.105	  0.045
 15.773	 -0.125	  0.045
 15.781	 -0.125	  0.065
 15.789	 -0.045	  0.085
 15.797	 -0.015	  0.005
 15.805	 -0.045	 -0.015
 15.812	 -0.085	 -0.055
 15.820	 -0.185	 -0.035
 15.828	 -0.175	 -0.005
 15.836	 -0.165	  0.005
 15.844	 -0.175	 -0.015
 15.852	 -0.215	 -0.005
 15.859	 -0.225	 -0.015
 15.867	 -0.235	 -0.035
 15.875	 -0.235	 -0.025
 15.883	 -0.235	 -0.015
 15.891	 -0.205	 -0.015
 15.898	 -0.305	  0.095
 15.906	 -0.925	  0.195
 15.914	 -0.745	 -0.045
 15.922	  0.525	 -0.415
 15.930	  2.195	 -0.245
 15.938	  2.775	  0.005
 15.945	  2.555	  0.525
 15.953	  1.315	 -0.455
 15.961	 -0.105	 -0.765
 15.969	 -0.325	 -0.285
 15.977	 -0.265	 -0.025
 15.984	 -0.315	  0.015
 15.992	 -0.365	 -0.015
 16.000	 -0.385	 -0.025
 16.008	 -0.385	 -0.035
 16.016	 -0.345	 -0.015
 16.023	 -0.375	 -0.015
 16.031	 -0.345	 -0.065
 16.039	 -0.315	 -0.055
 16.047	 -0.315	 -0.035
 16.055	 -0.335	 -0.065
 16.062	 -0.255	 -0.075
 16.070	 -0.235	 -0.065
 16.078	 -0.215	 -0.065
 16.086	 -0.215	 -0.095
 16.094	 -0.195	 -0.135
 16.102	 -0.175	 -0.135
 16.109	 -0.165	 -0.135
 16.117	 -0.185	 -0.185
 16.125	 -0.165	 -0.195
 16.133	 -0.175	 -0.205
 16.141	 -0.225	 -0.215
 16.148	 -0.255	 -0.205
 16.156	 -0.255	 -0.215
 16.164	 -0.255	 -0.215
 16.172	 -0.255	 -0.175
 16.180	 -0.225	 -0.135
 16.188	 -0.215	 -0.105
 16.195	 -0.185	 -0.065
 16.203	 -0.185	 -0.005
 16.211	 -0.175	 -0.015
 16.219	 -0.155	 -0.015
 16.227	 -0.185	  0.005
 16.234	 -0.175	  0.035
 16.242	 -0.185	  0.035
 16.250	 -0.245	  0.005
 16.258	 -0.195	  0.015
 16.266	 -0.175	  0.035
 16.273	 -0.185	  0.045
 16.281	 -0.175	  0.005
 16.289	 -0.185	  0.005
 16.297	 -0.175	  0.025
 16.305	 -0.205	  0.015
 16.312	 -0.215	 -0.005
 16.320	 -0.175	 -0.005
 16.328	 -0.165	  0.025
 16.336	 -0.155	  0.025
 16.344	 -0.175	  0.015
 16.352	 -0.175	  0.045
 16.359	 -0.195	 -0.005
 16.367	 -0.185	  0.015
 16.375	 -0.125	  0.045
 16.383	 -0.115	  0.055
 16.391	 -0.115	  0.055
 16.398	 -0.115	  0.085
 16.406	  0.005	  0.035
 16.414	 -0.035	  0.005
 16.422	 -0.105	 -0.055
 16.430	 -0.135	 -0.025
 16.438	 -0.155	 -0.005
 16.445	 -0.165	  0.025
 16.453	 -0.195	  0.025
 16.461	 -0.245	  0.005
 16.469	 -0.225	  0.005
 16.477	 -0.235	 -0.015
 16.484	 -0.285	 -0.005
 16.492	 -0.225	 -0.005
 16.500	 -0.205	 -0.005
 16.508	 -0.215	  0.045
 16.516	 -0.735	  0.235
 16.523	 -0.835	  0.005
 16.531	  0.075	 -0.545
 16.539	  1.785	 -0.305
 16.547	  2.745	  0.105
 16.555	  2.605	  0.765
 16.562	  1.675	 -0.215
 16.570	  0.135	 -0.865
 16.578	 -0.315	 -0.295
 16.586	 -0.285	 -0.005
 16.594	 -0.365	 -0.025
 16.602	 -0.375	 -0.005
 16.609	 -0.355	 -0.015
 16.617	 -0.375	 -0.045
 16.625	 -0.375	 -0.045
 16.633	 -0.385	 -0.035
 16.641	 -0.335	 -0.075
 16.648	 -0.335	 -0.055
 16.656	 -0.305	 -0.075
 16.664	 -0.295	 -0.065
 16.672	 -0.255	 -0.085
 16.680	 -0.225	 -0.095
 16.688	 -0.225	 -0.105
 16.695	 -0.205	 -0.135
 16.703	 -0.185	 -0.155
 16.711	 -0.175	 -0.165
 16.719	 -0.165	 -0.215
 16.727	 -0.145	 -0.225
 16.734	 -0.175	 -0.225
 16.742	 -0.155	 -0.235
 16.750	 -0.175	 -0.235
 16.758	 -0.235	 -0.285
 16.766	 -0.225	 -0.255
 16.773	 -0.205	 -0.215
 16.781	 -0.225	 -0.215
 16.789	 -0.215	 -0.165
 16.797	 -0.165	 -0.085
 16.805	 -0.155	 -0.095
 16.812	 -0.155	 -0.055
 16.820	 -0.205	 -0.015
 16.828	 -0.125	  0.005
 16.836	 -0.175	  0.025
 16.844	 -0.165	 -0.005
 16.852	 -0.185	  0.015
 16.859	 -0.155	  0.065
 16.867	 -0.155	  0.005
 16.875	 -0.165	 -0.015
 16.883	 -0.175	 -0.015
 16.891	 -0.155	  0.045
 16.898	 -0.165	  0.005
 16.906	 -0.175	  0.005
 16.914	 -0.145	  0.005
 16.922	 -0.145	  0.015
 16.930	 -0.155	  0.025
 16.938	 -0.165	 -0.005
 16.945	 -0.135	 -0.005
 16.953	 -0.165	  0.025
 16.961	 -0.175	  0.005
 16.969	 -0.135	 -0.005
 16.977	 -0.145	 -0.005
 16.984	 -0.165	  0.045
 16.992	 -0.125	  0.005
 17.000	 -0.105	  0.035
 17.008	 -0.085	  0.045
 17.016	 -0.085	  0.055
 17.023	 -0.085	  0.065
 17.031	  0.035	  0.055
 17.039	  0.025	 -0.005
 17.047	 -0.045	 -0.035
 17.055	 -0.095	 -0.065
 17.062	 -0.115	 -0.025
 17.070	 -0.115	  0.005
 17.078	 -0.135	 -0.005
 17.086	 -0.155	 -0.015
 17.094	 -0.205	 -0.025
 17.102	 -0.215	 -0.035
 17.109	 -0.195	 -0.015
 17.117	 -0.195	 -0.025
 17.125	 -0.195	 -0.045
 17.133	 -0.175	 -0.015
 17.141	 -0.325	  0.175
 17.148	 -0.845	  0.065
 17.156	 -0.585	 -0.385
 17.164	  1.055	 -0.635
 17.172	  2.595	 -0.125
 17.180	  2.755	  0.605
 17.188	  2.315	  0.625
 17.195	  0.725	 -0.715
 17.203	 -0.265	 -0.645
 17.211	 -0.265	 -0.165
 17.219	 -0.315	 -0.055
 17.227	 -0.305	 -0.075
 17.234	 -0.305	 -0.045
 17.242	 -0.375	 -0.095
 17.250	 -0.325	 -0.085
 17.258	 -0.305	 -0.065
 17.266	 -0.315	 -0.095
 17.273	 -0.265	 -0.105
 17.281	 -0.275	 -0.105
 17.289	 -0.265	 -0.095
 17.297	 -0.245	 -0.105
 17.305	 -0.235	 -0.125
 17.312	 -0.175	 -0.125
 17.320	 -0.145	 -0.135
 17.328	 -0.135	 -0.145
 17.336	 -0.125	 -0.165
 17.344	 -0.115	 -0.195
 17.352	 -0.125	 -0.205
 17.359	 -0.135	 -0.195
 17.367	 -0.105	 -0.245
 17.375	 -0.125	 -0.235
 17.383	 -0.145	 -0.225
 17.391	 -0.175	 -0.225
 17.398	 -0.175	 -0.215
 17.406	 -0.155	 -0.185
 17.414	 -0.105	 -0.165
 17.422	 -0.095	 -0.115
 17.430	 -0.065	 -0.075
 17.438	 -0.065	 -0.055
 17.445	 -0.095	 -0.035
 17.453	 -0.095	 -0.005
 17.461	 -0.125	 -0.005
 17.469	 -0.095	 -0.025
 17.477	 -0.125	 -0.015
 17.484	 -0.085	  0.015
 17.492	 -0.125	  0.015
 17.500	 -0.115	 -0.015
 17.508	 -0.125	 -0.015
 17.516	 -0.105	  0.015
 17.523	 -0.105	 -0.015
 17.531	 -0.095	 -0.015
 17.539	 -0.115	 -0.005
 17.547	 -0.085	  0.005
 17.555	 -0.115	 -0.005
 17.562	 -0.155	 -0.015
 17.570	 -0.115	 -0.015
 17.578	 -0.105	 -0.015
 17.586	 -0.095	  0.005
 17.594	 -0.105	 -0.015
 17.602	 -0.095	 -0.005
 17.609	 -0.105	 -0.005
 17.617	 -0.115	 -0.005
 17.625	 -0.095	 -0.025
 17.633	 -0.065	  0.005
 17.641	 -0.045	  0.025
 17.648	 -0.065	  0.035
 17.656	  0.005	  0.035
 17.664	  0.025	 -0.015
 17.672	 -0.005	 -0.055
 17.680	 -0.045	 -0.055
 17.688	 -0.105	 -0.045
 17.695	 -0.095	 -0.015
 17.703	 -0.145	  0.005
 17.711	 -0.155	 -0.025
 17.719	 -0.165	 -0.055
 17.727	 -0.185	 -0.055
 17.734	 -0.195	 -0.025
 17.742	 -0.205	 -0.035
 17.750	 -0.225	 -0.045
 17.758	 -0.205	 -0.025
 17.766	 -0.225	  0.045
 17.773	 -0.765	  0.075
 17.781	 -0.655	 -0.085
 17.789	  0.475	 -0.475
 17.797	  2.165	 -0.175
 17.805	  2.655	  0.105
 17.812	  2.465	  0.615
 17.820	  1.485	 -0.015
 17.828	 -0.055	 -0.625
 17.836	 -0.405	 -0.335
 17.844	 -0.275	 -0.135
 17.852	 -0.315	 -0.075
 17.859	 -0.345	 -0.085
 17.867	 -0.345	 -0.075
 17.875	 -0.375	 -0.105
 17.883	 -0.365	 -0.095
 17.891	 -0.355	 -0.105
 17.898	 -0.355	 -0.105
 17.906	 -0.315	 -0.135
 17.914	 -0.285	 -0.135
 17.922	 -0.245	 -0.125
 17.930	 -0.225	 -0.135
 17.938	 -0.215	 -0.175
 17.945	 -0.255	 -0.205
 17.953	 -0.215	 -0.175
 17.961	 -0.175	 -0.235
 17.969	 -0.185	 -0.235
 17.977	 -0.165	 -0.285
 17.984	 -0.145	 -0.285
 17.992	 -0.175	 -0.315
 18.000	 -0.195	 -0.315
 18.008	 -0.195	 -0.295
 18.016	 -0.215	 -0.325
 18.023	 -0.205	 -0.325
 18.031	 -0.195	 -0.295
 18.039	 -0.175	 -0.255
 18.047	 -0.135	 -0.235
 18.055	 -0.125	 -0.165
 18.062	 -0.095	 -0.135
 18.070	 -0.105	 -0.095
 18.078	 -0.125	 -0.055
 18.086	 -0.155	 -0.055
 18.094	 -0.115	 -0.065
 18.102	 -0.125	 -0.065
 18.109	 -0.135	 -0.045
 18.117	 -0.155	 -0.045
 18.125	 -0.145	 -0.045
 18.133	 -0.145	 -0.065
 18.141	 -0.125	 -0.045
 18.148	 -0.135	 -0.045
 18.156	 -0.125	 -0.065
 18.164	 -0.115	 -0.055
 18.172	 -0.115	 -0.045
 18.180	 -0.145	 -0.065
 18.188	 -0.135	 -0.055
 18.195	 -0.115	 -0.035
 18.203	 -0.115	 -0.055
 18.211	 -0.125	 -0.065
 18.219	 -0.145	 -0.065
 18.227	 -0.135	 -0.085
 18.234	 -0.135	 -0.045
 18.242	 -0.165	 -0.065
 18.250	 -0.135	 -0.045
 18.258	 -0.125	 -0.015
 18.266	 -0.075	  0.025
 18.273	 -0.085	  0.005
 18.281	 -0.015	  0.015
 18.289	  0.005	 -0.065
 18.297	 -0.055	 -0.095
 18.305	 -0.075	 -0.105
 18.312	 -0.095	 -0.085
 18.320	 -0.135	 -0.085
 18.328	 -0.155	 -0.035
 18.336	 -0.165	 -0.075
 18.344	 -0.185	 -0.075
 18.352	 -0.225	 -0.085
 18.359	 -0.225	 -0.075
 18.367	 -0.225	 -0.055
 18.375	 -0.225	 -0.075
 18.383	 -0.205	 -0.075
 18.391	 -0.195	  0.035
 18.398	 -0.755	  0.165
 18.406	 -0.735	 -0.065
 18.414	  0.355	 -0.555
 18.422	  2.085	 -0.255
 18.430	  2.825	  0.035
 18.438	  2.655	  0.625
 18.445	  1.615	 -0.365
 18.453	 -0.045	 -0.875
 18.461	 -0.365	 -0.345
 18.469	 -0.295	 -0.065
 18.477	 -0.305	 -0.045
 18.484	 -0.345	 -0.065
 18.492	 -0.365	 -0.075
 18.500	 -0.355	 -0.085
 18.508	 -0.335	 -0.095
 18.516	 -0.315	 -0.105
 18.523	 -0.305	 -0.095
 18.531	 -0.325	 -0.115
 18.539	 -0.265	 -0.115
 18.547	 -0.245	 -0.115
 18.555	 -0.245	 -0.125
 18.562	 -0.215	 -0.145
 18.570	 -0.165	 -0.125
 18.578	 -0.185	 -0.165
 18.586	 -0.185	 -0.205
 18.594	 -0.125	 -0.225
 18.602	 -0.145	 -0.245
 18.609	 -0.155	 -0.235
 18.617	 -0.135	 -0.275
 18.625	 -0.155	 -0.305
 18.633	 -0.185	 -0.295
 18.641	 -0.155	 -0.265
 18.648	 -0.215	 -0.265
 18.656	 -0.235	 -0.245
 18.664	 -0.215	 -0.235
 18.672	 -0.155	 -0.155
 18.680	 -0.145	 -0.145
 18.688	 -0.125	 -0.075
 18.695	 -0.125	 -0.085
 18.703	 -0.115	 -0.045
 18.711	 -0.155	 -0.025
 18.719	 -0.135	 -0.025
 18.727	 -0.125	 -0.025
 18.734	 -0.155	 -0.005
 18.742	 -0.155	 -0.025
 18.750	 -0.125	 -0.025
 18.758	 -0.125	  0.005
 18.766	 -0.145	 -0.005
 18.773	 -0.125	 -0.025
 18.781	 -0.155	 -0.035
 18.789	 -0.145	 -0.025
 18.797	 -0.125	  0.005
 18.805	 -0.145	 -0.025
 18.812	 -0.135	 -0.035
 18.820	 -0.085	 -0.025
 18.828	 -0.105	  0.005
 18.836	 -0.175	 -0.025
 18.844	 -0.125	 -0.045
 18.852	 -0.085	 -0.025
 18.859	 -0.135	 -0.005
 18.867	 -0.155	 -0.035
 18.875	 -0.125	 -0.035
 18.883	 -0.105	 -0.025
 18.891	 -0.065	  0.035
 18.898	 -0.055	  0.055
 18.906	 -0.095	  0.045
 18.914	 -0.025	  0.035
 18.922	  0.055	 -0.005
 18.930	 -0.035	 -0.035
 18.938	 -0.035	 -0.095
 18.945	 -0.065	 -0.055
 18.953	 -0.085	 -0.025
 18.961	 -0.105	 -0.005
 18.969	 -0.135	 -0.035
 18.977	 -0.185	 -0.055
 18.984	 -0.175	 -0.025
 18.992	 -0.185	 -0.035
 19.000	 -0.215	 -0.045
 19.008	 -0.185	 -0.055
 19.016	 -0.145	 -0.035
 19.023	 -0.135	  0.065
 19.031	 -0.675	  0.195
 19.039	 -0.745	 -0.015
 19.047	  0.215	 -0.595
 19.055	  1.955	 -0.335
 19.062	  2.835	  0.055
 19.070	  2.625	  0.695
 19.078	  1.495	 -0.505
 19.086	 -0.035	 -0.805
 19.094	 -0.275	 -0.245
 19.102	 -0.275	  0.005
 19.109	 -0.245	 -0.035
 19.117	 -0.325	 -0.045
 19.125	 -0.315	 -0.045
 19.133	 -0.325	 -0.035
 19.141	 -0.315	 -0.065
 19.148	 -0.295	 -0.055
 19.156	 -0.245	 -0.055
 19.164	 -0.275	 -0.085
 19.172	 -0.265	 -0.075
 19.180	 -0.215	 -0.075
 19.188	 -0.205	 -0.105
 19.195	 -0.185	 -0.105
 19.203	 -0.165	 -0.105
 19.211	 -0.135	 -0.135
 19.219	 -0.125	 -0.155
 19.227	 -0.125	 -0.175
 19.234	 -0.065	 -0.215
 19.242	 -0.085	 -0.225
 19.250	 -0.115	 -0.255
 19.258	 -0.085	 -0.245
 19.266	 -0.145	 -0.265
 19.273	 -0.155	 -0.285
 19.281	 -0.165	 -0.265
 19.289	 -0.185	 -0.225
 19.297	 -0.155	 -0.185
 19.305	 -0.145	 -0.175
 19.312	 -0.135	 -0.125
 19.320	 -0.125	 -0.055
 19.328	 -0.105	 -0.035
 19.336	 -0.105	 -0.015
 19.344	 -0.125	 -0.005
 19.352	 -0.135	  0.005
 19.359	 -0.095	  0.005
 19.367	 -0.135	 -0.005
 19.375	 -0.155	  0.015
 19.383	 -0.135	 -0.005
 19.391	 -0.105	  0.035
 19.398	 -0.135	  0.015
 19.406	 -0.095	 -0.005
 19.414	 -0.125	  0.005
 19.422	 -0.105	  0.015
 19.430	 -0.115	  0.025
 19.438	 -0.115	  0.025
 19.445	 -0.095	 -0.015
 19.453	 -0.105	 -0.005
 19.461	 -0.135	  0.035
 19.469	 -0.085	 -0.005
 19.477	 -0.105	 -0.025
 19.484	 -0.115	  0.005
 19.492	 -0.115	  0.005
 19.500	 -0.115	  0.015
 19.508	 -0.105	  0.005
 19.516	 -0.125	 -0.005
 19.523	 -0.125	  0.005
 19.531	 -0.105	 -0.005
 19.539	 -0.065	  0.035
 19.547	 -0.025	  0.055
 19.555	 -0.075	  0.045
 19.562	 -0.045	  0.065
 19.570	  0.045	  0.015
 19.578	  0.025	 -0.015
 19.586	 -0.025	 -0.075
 19.594	 -0.075	 -0.055
 19.602	 -0.085	 -0.035
 19.609	 -0.085	  0.015
 19.617	 -0.105	  0.015
 19.625	 -0.165	 -0.025
 19.633	 -0.165	 -0.045
 19.641	 -0.165	 -0.035
 19.648	 -0.185	 -0.005
 19.656	 -0.185	 -0.055
 19.664	 -0.145	 -0.035
 19.672	 -0.125	  0.045
 19.680	 -0.535	  0.205
 19.688	 -0.705	 -0.065
 19.695	 -0.015	 -0.665
 19.703	  1.785	 -0.345
 19.711	  2.745	  0.085
 19.719	  2.605	  0.815
 19.727	  1.695	 -0.155
 19.734	  0.165	 -0.835
 19.742	 -0.305	 -0.365
 19.750	 -0.255	 -0.045
 19.758	 -0.265	 -0.045
 19.766	 -0.315	 -0.055
 19.773	 -0.345	 -0.075
 19.781	 -0.315	 -0.075
 19.789	 -0.325	 -0.035
 19.797	 -0.285	 -0.065
 19.805	 -0.305	 -0.085
 19.812	 -0.285	 -0.095
 19.820	 -0.255	 -0.085
 19.828	 -0.245	 -0.115
 19.836	 -0.225	 -0.125
 19.844	 -0.185	 -0.135
 19.852	 -0.175	 -0.155
 19.859	 -0.175	 -0.175
 19.867	 -0.135	 -0.185
 19.875	 -0.135	 -0.205
 19.883	 -0.125	 -0.205
 19.891	 -0.095	 -0.265
 19.898	 -0.105	 -0.295
 19.906	 -0.105	 -0.295
 19.914	 -0.125	 -0.295
 19.922	 -0.145	 -0.285
 19.930	 -0.195	 -0.335
 19.938	 -0.155	 -0.295
 19.945	 -0.175	 -0.265
 19.953	 -0.135	 -0.185
 19.961	 -0.135	 -0.145
 19.969	 -0.135	 -0.105
 19.977	 -0.105	 -0.075
 19.984	 -0.125	 -0.035
 19.992	 -0.115	  0.005
 20.000	 -0.135	 -0.005
 20.008	 -0.155	 -0.005
 20.016	 -0.135	  0.015
 20.023	 -0.135	 -0.005
 20.031	 -0.175	  0.005
 20.039	 -0.155	  0.005
 20.047	 -0.145	  0.015
 20.055	 -0.135	  0.015
 20.062	 -0.155	 -0.025
 20.070	 -0.135	  0.045
 20.078	 -0.105	  0.005
 20.086	 -0.125	  0.025
 20.094	 -0.115	  0.015
 20.102	 -0.125	 -0.005
 20.109	 -0.125	  0.015
 20.117	 -0.115	  0.015
 20.125	 -0.105	 -0.005
 20.133	 -0.115	  0.005
 20.141	 -0.115	  0.025
 20.148	 -0.135	 -0.005
 20.156	 -0.135	 -0.005
 20.164	 -0.115	 -0.005
 20.172	 -0.125	  0.005
 20.180	 -0.125	 -0.005
 20.188	 -0.135	  0.025
 20.195	 -0.075	  0.045
 20.203	 -0.065	  0.055
 20.211	 -0.045	  0.045
 20.219	 -0.005	  0.055
 20.227	  0.045	 -0.005
 20.234	  0.005	 -0.035
 20.242	 -0.055	 -0.035
 20.250	 -0.085	 -0.055
 20.258	 -0.085	 -0.025
 20.266	 -0.075	  0.035
 20.273	 -0.115	 -0.005
 20.281	 -0.155	 -0.025
 20.289	 -0.155	 -0.035
 20.297	 -0.145	 -0.015
 20.305	 -0.145	 -0.015
 20.312	 -0.165	 -0.035
 20.320	 -0.165	  0.005
 20.328	 -0.115	  0.045
 20.336	 -0.525	  0.185
 20.344	 -0.675	 -0.105
 20.352	 -0.035	 -0.685
 20.359	  1.635	 -0.355
 20.367	  2.615	  0.145
 20.375	  2.515	  0.905
 20.383	  1.975	  0.235
 20.391	  0.455	 -0.825
 20.398	 -0.265	 -0.445
 20.406	 -0.225	 -0.085
 20.414	 -0.245	 -0.065
 20.422	 -0.285	 -0.045
 20.430	 -0.305	 -0.055
 20.438	 -0.295	 -0.085
 20.445	 -0.335	 -0.095
 20.453	 -0.255	 -0.075
 20.461	 -0.235	 -0.085
 20.469	 -0.225	 -0.105
 20.477	 -0.235	 -0.105
 20.484	 -0.215	 -0.095
 20.492	 -0.215	 -0.165
 20.500	 -0.175	 -0.175
 20.508	 -0.145	 -0.185
 20.516	 -0.155	 -0.175
 20.523	 -0.095	 -0.205
 20.531	 -0.085	 -0.255
 20.539	 -0.125	 -0.275
 20.547	 -0.105	 -0.325
 20.555	 -0.085	 -0.335
 20.562	 -0.075	 -0.355
 20.570	 -0.105	 -0.345
 20.578	 -0.105	 -0.335
 20.586	 -0.135	 -0.325
 20.594	 -0.155	 -0.295
 20.602	 -0.135	 -0.265
 20.609	 -0.095	 -0.225
 20.617	 -0.065	 -0.175
 20.625	 -0.065	 -0.115
 20.633	 -0.055	 -0.055
 20.641	 -0.055	 -0.035
 20.648	 -0.135	 -0.005
 20.656	 -0.135	  0.015
 20.664	 -0.125	 -0.005
 20.672	 -0.105	  0.015
 20.680	 -0.125	  0.025
 20.688	 -0.115	  0.005
 20.695	 -0.085	  0.025
 20.703	 -0.085	  0.035
 20.711	 -0.115	  0.035
 20.719	 -0.135	  0.015
 20.727	 -0.115	  0.005
 20.734	 -0.075	  0.045
 20.742	 -0.125	  0.035
 20.750	 -0.115	  0.005
 20.758	 -0.065	  0.025
 20.766	 -0.085	  0.045
 20.773	 -0.125	  0.005
 20.781	 -0.105	  0.005
 20.789	 -0.115	  0.015
 20.797	 -0.075	  0.025
 20.805	 -0.095	  0.025
 20.812	 -0.135	  0.025
 20.820	 -0.115	  0.025
 20.828	 -0.105	  0.015
 20.836	 -0.115	  0.005
 20.844	 -0.125	  0.015
 20.852	 -0.135	  0.005
 20.859	 -0.045	  0.075
 20.867	 -0.065	  0.055
 20.875	 -0.055	  0.045
 20.883	 -0.015	  0.065
 20.891	  0.075	  0.015
 20.898	  0.025	  0.005
 20.906	 -0.045	 -0.035
 20.914	 -0.085	 -0.025
 20.922	 -0.065	 -0.025
 20.930	 -0.085	  0.025
 20.938	 -0.065	 -0.005
 20.945	 -0.105	 -0.025
 20.953	 -0.155	 -0.005
 20.961	 -0.165	 -0.025
 20.969	 -0.165	 -0.035
 20.977	 -0.185	 -0.025
 20.984	 -0.135	 -0.015
 20.992	 -0.095	  0.065
 21.000	 -0.625	  0.115
 21.008	 -0.715	 -0.075
 21.016	  0.305	 -0.555
 21.023	  1.975	 -0.215
 21.031	  2.735	  0.135
 21.039	  2.575	  0.825
 21.047	  1.745	  0.105
 21.055	  0.065	 -0.775
 21.062	 -0.385	 -0.395
 21.070	 -0.285	 -0.085
 21.078	 -0.235	 -0.055
 21.086	 -0.325	 -0.055
 21.094	 -0.325	 -0.095
 21.102	 -0.305	 -0.085
 21.109	 -0.335	 -0.085
 21.117	 -0.295	 -0.095
 21.125	 -0.295	 -0.085
 21.133	 -0.255	 -0.125
 21.141	 -0.245	 -0.095
 21.148	 -0.225	 -0.135
 21.156	 -0.235	 -0.155
 21.164	 -0.205	 -0.145
 21.172	 -0.155	 -0.155
 21.180	 -0.145	 -0.195
 21.188	 -0.125	 -0.235
 21.195	 -0.135	 -0.215
 21.203	 -0.105	 -0.235
 21.211	 -0.115	 -0.265
 21.219	 -0.145	 -0.325
 21.227	 -0.125	 -0.315
 21.234	 -0.205	 -0.295
 21.242	 -0.155	 -0.285
 21.250	 -0.155	 -0.275
 21.258	 -0.145	 -0.255
 21.266	 -0.135	 -0.205
 21.273	 -0.125	 -0.155
 21.281	 -0.095	 -0.125
 21.289	 -0.085	 -0.055
 21.297	 -0.075	 -0.035
 21.305	 -0.105	 -0.035
 21.312	 -0.125	 -0.015
 21.320	 -0.115	 -0.015
 21.328	 -0.155	  0.005
 21.336	 -0.135	  0.025
 21.344	 -0.155	 -0.015
 21.352	 -0.105	 -0.005
 21.359	 -0.125	  0.005
 21.367	 -0.135	  0.025
 21.375	 -0.125	  0.005
 21.383	 -0.115	 -0.005
 21.391	 -0.125	  0.005
 21.398	 -0.105	 -0.005
 21.406	 -0.135	 -0.005
 21.414	 -0.115	 -0.005
 21.422	 -0.145	  0.035
 21.430	 -0.125	 -0.025
 21.438	 -0.125	 -0.025
 21.445	 -0.115	 -0.025
 21.453	 -0.095	  0.025
 21.461	 -0.125	  0.005
 21.469	 -0.115	  0.005
 21.477	 -0.135	 -0.025
 21.484	 -0.145	  0.025
 21.492	 -0.155	 -0.025
 21.500	 -0.155	 -0.035
 21.508	 -0.075	  0.035
 21.516	 -0.075	  0.055
 21.523	 -0.065	  0.105
 21.531	 -0.015	  0.075
 21.539	  0.045	 -0.035
 21.547	 -0.015	 -0.055
 21.555	 -0.085	 -0.055
 21.562	 -0.065	 -0.035
 21.570	 -0.065	  0.005
 21.578	 -0.115	 -0.005
 21.586	 -0.135	 -0.045
 21.594	 -0.175	 -0.045
 21.602	 -0.205	 -0.035
 21.609	 -0.225	 -0.025
 21.617	 -0.205	 -0.025
 21.625	 -0.165	 -0.045
 21.633	 -0.115	 -0.045
 21.641	 -0.145	  0.095
 21.648	 -0.725	  0.165
 21.656	 -0.665	 -0.105
 21.664	  0.425	 -0.555
 21.672	  2.075	 -0.225
 21.680	  2.805	  0.105
 21.688	  2.655	  0.695
 21.695	  1.885	 -0.225
 21.703	  0.215	 -0.835
 21.711	 -0.375	 -0.395
 21.719	 -0.255	 -0.075
 21.727	 -0.255	 -0.035
 21.734	 -0.285	 -0.055
 21.742	 -0.335	 -0.045
 21.750	 -0.355	 -0.075
 21.758	 -0.325	 -0.065
 21.766	 -0.295	 -0.075
 21.773	 -0.325	 -0.075
 21.781	 -0.295	 -0.085
 21.789	 -0.265	 -0.105
 21.797	 -0.215	 -0.095
 21.805	 -0.225	 -0.095
 21.812	 -0.225	 -0.115
 21.820	 -0.185	 -0.145
 21.828	 -0.185	 -0.135
 21.836	 -0.135	 -0.175
 21.844	 -0.115	 -0.165
 21.852	 -0.115	 -0.225
 21.859	 -0.115	 -0.205
 21.867	 -0.125	 -0.275
 21.875	 -0.145	 -0.285
 21.883	 -0.125	 -0.305
 21.891	 -0.085	 -0.275
 21.898	 -0.185	 -0.265
 21.906	 -0.185	 -0.295
 21.914	 -0.175	 -0.235
 21.922	 -0.155	 -0.165
 21.930	 -0.155	 -0.125
 21.938	 -0.095	 -0.105
 21.945	 -0.115	 -0.075
 21.953	 -0.135	 -0.045
 21.961	 -0.125	 -0.025
 21.969	 -0.125	 -0.015
 21.977	 -0.145	 -0.005
 21.984	 -0.135	  0.005
 21.992	 -0.155	 -0.025
 22.000	 -0.115	 -0.005
 22.008	 -0.155	  0.025
 22.016	 -0.135	  0.005
 22.023	 -0.125	 -0.025
 22.031	 -0.145	  0.005
 22.039	 -0.125	  0.005
 22.047	 -0.125	 -0.015
 22.055	 -0.125	  0.015
 22.062	 -0.135	  0.005
 22.070	 -0.135	 -0.015
 22.078	 -0.125	  0.005
 22.086	 -0.095	  0.005
 22.094	 -0.165	 -0.015
 22.102	 -0.125	 -0.025
 22.109	 -0.105	 -0.015
 22.117	 -0.115	  0.015
 22.125	 -0.135	 -0.015
 22.133	 -0.145	 -0.015
 22.141	 -0.155	 -0.005
 22.148	 -0.165	 -0.005
 22.156	 -0.105	  0.035
 22.164	 -0.075	  0.035
 22.172	 -0.065	  0.055
 22.180	 -0.035	  0.075
 22.188	  0.045	  0.015
 22.195	 -0.035	 -0.055
 22.203	 -0.065	 -0.055
 22.211	 -0.075	 -0.035
 22.219	 -0.115	 -0.025
 22.227	 -0.135	  0.005
 22.234	 -0.105	 -0.015
 22.242	 -0.175	 -0.035
 22.250	 -0.245	 -0.035
 22.258	 -0.225	 -0.035
 22.266	 -0.185	 -0.005
 22.273	 -0.185	 -0.035
 22.281	 -0.185	 -0.055
 22.289	 -0.145	  0.045
 22.297	 -0.645	  0.195
 22.305	 -0.775	 -0.085
 22.312	  0.215	 -0.645
 22.320	  1.945	 -0.325
 22.328	  2.815	  0.165
 22.336	  2.605	  0.685
 22.344	  1.545	 -0.485
 22.352	 -0.015	 -0.805
 22.359	 -0.285	 -0.275
 22.367	 -0.275	 -0.015
 22.375	 -0.325	 -0.055
 22.383	 -0.335	 -0.055
 22.391	 -0.385	 -0.075
 22.398	 -0.375	 -0.065
 22.406	 -0.355	 -0.075
 22.414	 -0.335	 -0.095
 22.422	 -0.335	 -0.095
 22.430	 -0.325	 -0.115
 22.438	 -0.275	 -0.085
 22.445	 -0.275	 -0.115
 22.453	 -0.245	 -0.135
 22.461	 -0.215	 -0.115
 22.469	 -0.235	 -0.125
 22.477	 -0.215	 -0.195
 22.484	 -0.155	 -0.195
 22.492	 -0.155	 -0.225
 22.500	 -0.135	 -0.235
 22.508	 -0.145	 -0.255
 22.516	 -0.125	 -0.275
 22.523	 -0.135	 -0.305
 22.531	 -0.125	 -0.325
 22.539	 -0.195	 -0.305
 22.547	 -0.165	 -0.275
 22.555	 -0.195	 -0.285
 22.562	 -0.175	 -0.255
 22.570	 -0.195	 -0.175
 22.578	 -0.185	 -0.155
 22.586	 -0.125	 -0.085
 22.594	 -0.145	 -0.085
 22.602	 -0.155	 -0.055
 22.609	 -0.165	 -0.015
 22.617	 -0.145	  0.005
 22.625	 -0.195	 -0.025
 22.633	 -0.175	 -0.015
 22.641	 -0.185	 -0.015
 22.648	 -0.165	 -0.015
 22.656	 -0.185	 -0.015
 22.664	 -0.165	  0.005
 22.672	 -0.175	 -0.025
 22.680	 -0.175	 -0.025
 22.688	 -0.155	  0.005
 22.695	 -0.135	 -0.015
 22.703	 -0.155	 -0.025
 22.711	 -0.155	  0.005
 22.719	 -0.155	 -0.015
 22.727	 -0.155	 -0.005
 22.734	 -0.115	  0.005
 22.742	 -0.145	 -0.025
 22.750	 -0.145	 -0.025
 22.758	 -0.155	 -0.045
 22.766	 -0.155	  0.005
 22.773	 -0.155	  0.005
 22.781	 -0.145	 -0.045
 22.789	 -0.145	 -0.035
 22.797	 -0.145	 -0.015
 22.805	 -0.135	 -0.005
 22.812	 -0.105	  0.015
 22.820	 -0.095	  0.005
 22.828	 -0.085	  0.045
 22.836	 -0.065	  0.055
 22.844	 -0.025	 -0.015
 22.852	 -0.015	 -0.065
 22.859	 -0.055	 -0.075
 22.867	 -0.085	 -0.075
 22.875	 -0.095	 -0.065
 22.883	 -0.115	  0.005
 22.891	 -0.115	 -0.035
 22.898	 -0.145	 -0.055
 22.906	 -0.175	 -0.035
 22.914	 -0.155	 -0.045
 22.922	 -0.155	 -0.035
 22.930	 -0.165	 -0.055
 22.938	 -0.145	 -0.055
 22.945	 -0.145	 -0.035
 22.953	 -0.215	  0.155
 22.961	 -0.295	  0.025
 22.969	  0.065	 -0.485
 22.977	  0.965	 -0.625
 22.984	  1.805	 -0.125
 22.992	  2.005	  0.655
 23.000	  1.645	  0.525
 23.008	  0.805	 -0.745
 23.016	  0.095	 -0.645
 23.023	 -0.125	 -0.165
 23.031	 -0.205	 -0.055
 23.039	 -0.255	 -0.125
 23.047	 -0.275	 -0.085
 23.055	 -0.315	 -0.075
 23.062	 -0.315	 -0.105
 23.070	 -0.305	 -0.085
 23.078	 -0.285	 -0.125
 23.086	 -0.285	 -0.125
 23.094	 -0.285	 -0.145
 23.102	 -0.245	 -0.125
 23.109	 -0.245	 -0.115
 23.117	 -0.225	 -0.155
 23.125	 -0.205	 -0.175
 23.133	 -0.195	 -0.205
 23.141	 -0.165	 -0.205
 23.148	 -0.145	 -0.205
 23.156	 -0.105	 -0.235
 23.164	 -0.115	 -0.315
 23.172	 -0.115	 -0.315
 23.180	 -0.105	 -0.345
 23.188	 -0.135	 -0.325
 23.195	 -0.135	 -0.345
 23.203	 -0.155	 -0.345
 23.211	 -0.185	 -0.345
 23.219	 -0.175	 -0.315
 23.227	 -0.165	 -0.245
 23.234	 -0.125	 -0.165
 23.242	 -0.135	 -0.155
 23.250	 -0.135	 -0.115
 23.258	 -0.105	 -0.065
 23.266	 -0.135	 -0.035
 23.273	 -0.195	 -0.035
 23.281	 -0.175	 -0.045
 23.289	 -0.205	 -0.025
 23.297	 -0.155	 -0.015
 23.305	 -0.135	 -0.005
 23.312	 -0.155	 -0.025
 23.320	 -0.175	 -0.025
 23.328	 -0.165	 -0.005
 23.336	 -0.155	 -0.025
 23.344	 -0.145	 -0.025
 23.352	 -0.165	 -0.025
 23.359	 -0.135	 -0.005
 23.367	 -0.125	 -0.015
 23.375	 -0.135	 -0.015
 23.383	 -0.145	 -0.015
 23.391	 -0.135	 -0.015
 23.398	 -0.135	 -0.015
 23.406	 -0.155	 -0.025
 23.414	 -0.135	 -0.015
 23.422	 -0.145	 -0.015
 23.430	 -0.125	 -0.005
 23.438	 -0.155	 -0.025
 23.445	 -0.175	 -0.045
 23.453	 -0.145	 -0.035
 23.461	 -0.155	 -0.025
 23.469	 -0.165	 -0.015
 23.477	 -0.165	 -0.035
 23.484	 -0.165	 -0.025
 23.492	 -0.115	 -0.005
 23.500	 -0.105	  0.015
 23.508	 -0.085	  0.015
 23.516	 -0.065	  0.055
 23.523	  0.005	  0.025
 23.531	  0.035	 -0.065
 23.539	 -0.025	 -0.075
 23.547	 -0.065	 -0.065
 23.555	 -0.105	 -0.015
 23.562	 -0.085	 -0.045
 23.570	 -0.105	 -0.015
 23.578	 -0.125	 -0.035
 23.586	 -0.165	 -0.035
 23.594	 -0.165	 -0.065
 23.602	 -0.185	 -0.045
 23.609	 -0.185	 -0.045
 23.617	 -0.175	 -0.055
 23.625	 -0.145	 -0.045
 23.633	 -0.175	  0.045
 23.641	 -0.495	  0.155
 23.648	 -0.555	 -0.155
 23.656	  0.165	 -0.755
 23.664	  1.555	 -0.315
 23.672	  2.265	  0.205
 23.680	  2.205	  0.925
 23.688	  1.595	  0.195
 23.695	  0.355	 -0.805
 23.703	 -0.175	 -0.465
 23.711	 -0.215	 -0.115
 23.719	 -0.225	 -0.045
 23.727	 -0.285	 -0.095
 23.734	 -0.295	 -0.115
 23.742	 -0.315	 -0.095
 23.750	 -0.305	 -0.105
 23.758	 -0.305	 -0.105
 23.766	 -0.285	 -0.085
 23.773	 -0.265	 -0.085
 23.781	 -0.275	 -0.155
 23.789	 -0.245	 -0.175
 23.797	 -0.215	 -0.155
 23.805	 -0.205	 -0.175
 23.812	 -0.195	 -0.205
 23.820	 -0.165	 -0.205
 23.828	 -0.155	 -0.245
 23.836	 -0.165	 -0.285
 23.844	 -0.135	 -0.305
 23.852	 -0.115	 -0.325
 23.859	 -0.105	 -0.345
 23.867	 -0.135	 -0.385
 23.875	 -0.135	 -0.405
 23.883	 -0.125	 -0.385
 23.891	 -0.175	 -0.355
 23.898	 -0.135	 -0.335
 23.906	 -0.145	 -0.295
 23.914	 -0.125	 -0.265
 23.922	 -0.125	 -0.195
 23.930	 -0.095	 -0.145
 23.938	 -0.075	 -0.105
 23.945	 -0.135	 -0.055
 23.953	 -0.185	 -0.045
 23.961	 -0.115	 -0.035
 23.969	 -0.145	 -0.055
 23.977	 -0.155	 -0.055
 23.984	 -0.145	 -0.015
 23.992	 -0.145	 -0.005
 24.000	 -0.165	 -0.035
 24.008	 -0.175	 -0.045
 24.016	 -0.175	 -0.025
 24.023	 -0.165	 -0.035
 24.031	 -0.165	 -0.045
 24.039	 -0.175	 -0.035
 24.047	 -0.125	 -0.005
 24.055	 -0.155	 -0.035
 24.062	 -0.155	 -0.035
 24.070	 -0.185	 -0.035
 24.078	 -0.165	 -0.035
 24.086	 -0.185	 -0.005
 24.094	 -0.175	 -0.035
 24.102	 -0.175	 -0.035
 24.109	 -0.175	 -0.055
 24.117	 -0.195	 -0.045
 24.125	 -0.185	 -0.055
 24.133	 -0.125	 -0.045
 24.141	 -0.155	  0.005
 24.148	 -0.165	 -0.045
 24.156	 -0.115	 -0.025
 24.164	 -0.095	  0.015
 24.172	 -0.115	  0.035
 24.180	 -0.065	  0.045
 24.188	  0.025	 -0.045
 24.195	 -0.075	 -0.085
 24.203	 -0.125	 -0.105
 24.211	 -0.175	 -0.075
 24.219	 -0.085	 -0.055
 24.227	 -0.105	 -0.055
 24.234	 -0.155	 -0.055
 24.242	 -0.155	 -0.045
 24.250	 -0.245	 -0.085
 24.258	 -0.235	 -0.075
 24.266	 -0.185	 -0.045
 24.273	 -0.225	 -0.045
 24.281	 -0.165	 -0.075
 24.289	 -0.205	  0.005
 24.297	 -0.665	  0.155
 24.305	 -0.705	 -0.105
 24.312	  0.445	 -0.535
 24.320	  2.135	 -0.295
 24.328	  2.795	  0.025
 24.336	  2.565	  0.735
 24.344	  1.515	 -0.055
 24.352	 -0.125	 -0.865
 24.359	 -0.415	 -0.425
 24.367	 -0.315	 -0.115
 24.375	 -0.335	 -0.075
 24.383	 -0.345	 -0.075
 24.391	 -0.365	 -0.085
 24.398	 -0.315	 -0.095
 24.406	 -0.295	 -0.095
 24.414	 -0.295	 -0.095
 24.422	 -0.265	 -0.115
 24.430	 -0.255	 -0.115
 24.438	 -0.265	 -0.135
 24.445	 -0.255	 -0.135
 24.453	 -0.225	 -0.125
 24.461	 -0.175	 -0.145
 24.469	 -0.175	 -0.175
 24.477	 -0.175	 -0.165
 24.484	 -0.145	 -0.205
 24.492	 -0.155	 -0.245
 24.500	 -0.115	 -0.265
 24.508	 -0.095	 -0.265
 24.516	 -0.105	 -0.285
 24.523	 -0.115	 -0.305
 24.531	 -0.115	 -0.295
 24.539	 -0.155	 -0.305
 24.547	 -0.145	 -0.275
 24.555	 -0.165	 -0.255
 24.562	 -0.195	 -0.215
 24.570	 -0.105	 -0.165
 24.578	 -0.075	 -0.085
 24.586	 -0.075	 -0.105
 24.594	 -0.125	 -0.065
 24.602	 -0.125	 -0.035
 24.609	 -0.135	 -0.015
 24.617	 -0.145	 -0.015
 24.625	 -0.175	 -0.025
 24.633	 -0.175	  0.015
 24.641	 -0.185	 -0.025
 24.648	 -0.185	 -0.025
 24.656	 -0.145	 -0.025
 24.664	 -0.135	 -0.015
 24.672	 -0.175	  0.015
 24.680	 -0.155	 -0.005
 24.688	 -0.145	 -0.035
 24.695	 -0.175	 -0.015
 24.703	 -0.135	 -0.015
 24.711	 -0.125	 -0.015
 24.719	 -0.165	 -0.025
 24.727	 -0.165	 -0.035
 24.734	 -0.125	 -0.015
 24.742	 -0.135	 -0.005
 24.750	 -0.135	 -0.005
 24.758	 -0.165	 -0.025
 24.766	 -0.145	 -0.025
 24.773	 -0.145	 -0.015
 24.781	 -0.145	 -0.015
 24.789	 -0.145	 -0.005
 24.797	 -0.125	  0.035
 24.805	 -0.095	  0.045
 24.812	 -0.075	  0.045
 24.820	 -0.045	  0.065
 24.828	 -0.015	  0.045
 24.836	  0.055	 -0.015
 24.844	 -0.025	 -0.035
 24.852	 -0.095	 -0.045
 24.859	 -0.115	 -0.045
 24.867	 -0.115	 -0.015
 24.875	 -0.145	 -0.015
 24.883	 -0.125	 -0.025
 24.891	 -0.155	 -0.035
 24.898	 -0.215	 -0.045
 24.906	 -0.245	 -0.015
 24.914	 -0.175	 -0.025
 24.922	 -0.145	 -0.035
 24.930	 -0.145	 -0.005
 24.938	 -0.205	  0.085
 24.945	 -0.765	  0.175
 24.953	 -0.555	 -0.025
 24.961	  0.705	 -0.425
 24.969	  2.265	 -0.315
 24.977	  2.845	 -0.015
 24.984	  2.625	  0.475
 24.992	  1.335	 -0.565
 25.000	 -0.145	 -0.825
 25.008	 -0.335	 -0.255
 25.016	 -0.235	 -0.015
 25.023	 -0.275	 -0.005
 25.031	 -0.335	 -0.025
 25.039	 -0.345	 -0.025
 25.047	 -0.335	 -0.025
 25.055	 -0.315	 -0.025
 25.062	 -0.315	 -0.065
 25.070	 -0.305	 -0.075
 25.078	 -0.265	 -0.065
 25.086	 -0.265	 -0.075
 25.094	 -0.255	 -0.095
 25.102	 -0.225	 -0.085
 25.109	 -0.195	 -0.065
 25.117	 -0.185	 -0.095
 25.125	 -0.155	 -0.115
 25.133	 -0.125	 -0.145
 25.141	 -0.095	 -0.145
 25.148	 -0.085	 -0.155
 25.156	 -0.055	 -0.215
 25.164	 -0.105	 -0.215
 25.172	 -0.105	 -0.225
 25.180	 -0.115	 -0.245
 25.188	 -0.105	 -0.255
 25.195	 -0.145	 -0.215
 25.203	 -0.145	 -0.215
 25.211	 -0.145	 -0.195
 25.219	 -0.115	 -0.145
 25.227	 -0.125	 -0.115
 25.234	 -0.095	 -0.055
 25.242	 -0.105	 -0.055
 25.250	 -0.145	 -0.045
 25.258	 -0.115	 -0.015
 25.266	 -0.105	  0.025
 25.273	 -0.135	  0.025
 25.281	 -0.145	  0.005
 25.289	 -0.145	  0.005
 25.297	 -0.165	  0.025
 25.305	 -0.105	  0.015
 25.312	 -0.145	 -0.015
 25.320	 -0.115	  0.015
 25.328	 -0.105	  0.025
 25.336	 -0.125	  0.025
 25.344	 -0.155	 -0.015
 25.352	 -0.105	  0.015
 25.359	 -0.085	  0.025
 25.367	 -0.115	 -0.005
 25.375	 -0.135	 -0.005
 25.383	 -0.115	 -0.005
 25.391	 -0.095	  0.025
 25.398	 -0.095	 -0.015
 25.406	 -0.125	 -0.025
 25.414	 -0.155	  0.005
 25.422	 -0.105	  0.015
 25.430	 -0.115	  0.005
 25.438	 -0.095	  0.015
 25.445	 -0.045	  0.035
 25.453	 -0.005	  0.075
 25.461	 -0.095	  0.065
 25.469	  0.015	  0.045
 25.477	  0.045	 -0.025
 25.484	 -0.005	 -0.015
 25.492	 -0.065	 -0.035
 25.500	 -0.115	 -0.055
 25.508	 -0.065	 -0.015
 25.516	 -0.085	  0.015
 25.523	 -0.155	 -0.025
 25.531	 -0.175	 -0.025
 25.539	 -0.195	 -0.025
 25.547	 -0.175	 -0.015
 25.555	 -0.185	 -0.035
 25.562	 -0.185	 -0.005
 25.570	 -0.135	 -0.025
 25.578	 -0.235	  0.135
 25.586	 -0.715	  0.155
 25.594	 -0.565	 -0.215
 25.602	  0.735	 -0.715
 25.609	  2.375	 -0.265
 25.617	  2.835	  0.385
 25.625	  2.505	  0.725
 25.633	  1.145	 -0.565
 25.641	 -0.165	 -0.725
 25.648	 -0.265	 -0.175
 25.656	 -0.225	 -0.025
 25.664	 -0.285	 -0.035
 25.672	 -0.335	 -0.045
 25.680	 -0.335	 -0.055
 25.688	 -0.365	 -0.065
 25.695	 -0.315	 -0.075
 25.703	 -0.305	 -0.065
 25.711	 -0.315	 -0.075
 25.719	 -0.265	 -0.105
 25.727	 -0.255	 -0.085
 25.734	 -0.225	 -0.105
 25.742	 -0.225	 -0.115
 25.750	 -0.175	 -0.155
 25.758	 -0.175	 -0.175
 25.766	 -0.145	 -0.145
 25.773	 -0.135	 -0.195
 25.781	 -0.105	 -0.225
 25.789	 -0.115	 -0.235
 25.797	 -0.105	 -0.265
 25.805	 -0.085	 -0.285
 25.812	 -0.085	 -0.305
 25.820	 -0.115	 -0.335
 25.828	 -0.105	 -0.325
 25.836	 -0.165	 -0.305
 25.844	 -0.175	 -0.275
 25.852	 -0.185	 -0.245
 25.859	 -0.155	 -0.175
 25.867	 -0.115	 -0.135
 25.875	 -0.125	 -0.095
 25.883	 -0.125	 -0.065
 25.891	 -0.135	 -0.035
 25.898	 -0.135	 -0.005
 25.906	 -0.165	  0.005
 25.914	 -0.185	 -0.005
 25.922	 -0.155	 -0.005
 25.930	 -0.165	 -0.005
 25.938	 -0.175	 -0.005
 25.945	 -0.155	 -0.005
 25.953	 -0.155	  0.005
 25.961	 -0.155	 -0.005
 25.969	 -0.165	 -0.005
 25.977	 -0.185	 -0.015
 25.984	 -0.155	 -0.005
 25.992	 -0.145	 -0.005
 26.000	 -0.155	  0.005
 26.008	 -0.145	 -0.005
 26.016	 -0.145	  0.005
 26.023	 -0.175	 -0.025
 26.031	 -0.185	 -0.025
 26.039	 -0.165	  0.005
 26.047	 -0.145	 -0.005
 26.055	 -0.175	 -0.015
 26.062	 -0.175	 -0.015
 26.070	 -0.165	 -0.015
 26.078	 -0.155	 -0.005
 26.086	 -0.105	  0.015
 26.094	 -0.085	  0.035
 26.102	 -0.125	  0.045
 26.109	 -0.035	  0.035
 26.117	 -0.005	 -0.025
 26.125	 -0.055	 -0.065
 26.133	 -0.085	 -0.055
 26.141	 -0.125	 -0.035
 26.148	 -0.165	 -0.025
 26.156	 -0.145	  0.025
 26.164	 -0.165	 -0.015
 26.172	 -0.215	 -0.035
 26.180	 -0.205	 -0.025
 26.188	 -0.225	 -0.025
 26.195	 -0.195	 -0.055
 26.203	 -0.195	 -0.025
 26.211	 -0.215	 -0.035
 26.219	 -0.195	  0.055
 26.227	 -0.705	  0.175
 26.234	 -0.715	 -0.105
 26.242	  0.165	 -0.735
 26.250	  1.875	 -0.355
 26.258	  2.715	  0.155
 26.266	  2.545	  0.895
 26.273	  1.585	 -0.015
 26.281	  0.055	 -0.825
 26.289	 -0.355	 -0.405
 26.297	 -0.305	 -0.065
 26.305	 -0.315	 -0.065
 26.312	 -0.345	 -0.075
 26.320	 -0.405	 -0.085
 26.328	 -0.385	 -0.095
 26.336	 -0.345	 -0.085
 26.344	 -0.345	 -0.105
 26.352	 -0.325	 -0.135
 26.359	 -0.275	 -0.105
 26.367	 -0.275	 -0.115
 26.375	 -0.265	 -0.165
 26.383	 -0.265	 -0.155
 26.391	 -0.205	 -0.165
 26.398	 -0.205	 -0.195
 26.406	 -0.185	 -0.225
 26.414	 -0.185	 -0.245
 26.422	 -0.145	 -0.285
 26.430	 -0.145	 -0.295
 26.438	 -0.135	 -0.345
 26.445	 -0.135	 -0.375
 26.453	 -0.135	 -0.375
 26.461	 -0.115	 -0.385
 26.469	 -0.145	 -0.405
 26.477	 -0.165	 -0.365
 26.484	 -0.145	 -0.345
 26.492	 -0.175	 -0.315
 26.500	 -0.135	 -0.275
 26.508	 -0.135	 -0.205
 26.516	 -0.135	 -0.135
 26.523	 -0.095	 -0.105
 26.531	 -0.085	 -0.075
 26.539	 -0.115	 -0.035
 26.547	 -0.135	 -0.025
 26.555	 -0.175	 -0.025
 26.562	 -0.185	 -0.025
 26.570	 -0.175	 -0.025
 26.578	 -0.185	 -0.015
 26.586	 -0.175	 -0.005
 26.594	 -0.155	 -0.035
 26.602	 -0.175	 -0.015
 26.609	 -0.165	  0.005
 26.617	 -0.205	 -0.005
 26.625	 -0.175	 -0.005
 26.633	 -0.135	 -0.015
 26.641	 -0.135	 -0.005
 26.648	 -0.165	 -0.035
 26.656	 -0.195	 -0.015
 26.664	 -0.185	 -0.025
 26.672	 -0.165	  0.005
 26.680	 -0.195	 -0.025
 26.688	 -0.145	 -0.005
 26.695	 -0.145	 -0.035
 26.703	 -0.165	 -0.025
 26.711	 -0.135	 -0.025
 26.719	 -0.125	 -0.005
 26.727	 -0.095	  0.025
 26.734	 -0.095	  0.025
 26.742	 -0.055	  0.025
 26.750	  0.015	 -0.005
 26.758	 -0.025	 -0.055
 26.766	 -0.105	 -0.065
 26.773	 -0.135	 -0.045
 26.781	 -0.125	 -0.035
 26.789	 -0.155	 -0.025
 26.797	 -0.185	 -0.025
 26.805	 -0.205	 -0.045
 26.812	 -0.245	 -0.025
 26.820	 -0.205	 -0.025
 26.828	 -0.205	 -0.055
 26.836	 -0.215	 -0.055
 26.844	 -0.195	 -0.035
 26.852	 -0.175	  0.015
 26.859	 -0.645	  0.165
 26.867	 -0.775	 -0.055
 26.875	  0.195	 -0.515
 26.883	  1.945	 -0.275
 26.891	  2.705	  0.175
 26.898	  2.505	  0.805
 26.906	  1.505	 -0.045
 26.914	 -0.005	 -0.785
 26.922	 -0.375	 -0.415
 26.930	 -0.295	 -0.115
 26.938	 -0.315	 -0.085
 26.945	 -0.325	 -0.085
 26.953	 -0.335	 -0.065
 26.961	 -0.375	 -0.095
 26.969	 -0.375	 -0.095
 26.977	 -0.345	 -0.105
 26.984	 -0.325	 -0.105
 26.992	 -0.295	 -0.135
 27.000	 -0.305	 -0.155
 27.008	 -0.365	 -0.145
 27.016	 -0.255	 -0.145
 27.023	 -0.235	 -0.145
 27.031	 -0.225	 -0.205
 27.039	 -0.215	 -0.205
 27.047	 -0.175	 -0.225
 27.055	 -0.165	 -0.255
 27.062	 -0.195	 -0.305
 27.070	 -0.185	 -0.305
 27.078	 -0.175	 -0.325
 27.086	 -0.185	 -0.335
 27.094	 -0.205	 -0.325
 27.102	 -0.195	 -0.325
 27.109	 -0.215	 -0.305
 27.117	 -0.215	 -0.275
 27.125	 -0.215	 -0.245
 27.133	 -0.165	 -0.185
 27.141	 -0.155	 -0.155
 27.148	 -0.145	 -0.105
 27.156	 -0.165	 -0.055
 27.164	 -0.145	 -0.045
 27.172	 -0.175	 -0.035
 27.180	 -0.205	 -0.025
 27.188	 -0.215	 -0.025
 27.195	 -0.165	 -0.015
 27.203	 -0.225	 -0.015
 27.211	 -0.205	 -0.025
 27.219	 -0.195	 -0.025
 27.227	 -0.175	 -0.015
 27.234	 -0.185	 -0.015
 27.242	 -0.215	 -0.025
 27.250	 -0.185	 -0.035
 27.258	 -0.175	 -0.025
 27.266	 -0.195	 -0.035
 27.273	 -0.205	 -0.045
 27.281	 -0.185	 -0.035
 27.289	 -0.175	 -0.025
 27.297	 -0.205	 -0.025
 27.305	 -0.205	 -0.035
 27.312	 -0.185	 -0.035
 27.320	 -0.155	 -0.025
 27.328	 -0.185	 -0.045
 27.336	 -0.215	 -0.035
 27.344	 -0.155	 -0.015
 27.352	 -0.115	  0.025
 27.359	 -0.125	  0.045
 27.367	 -0.145	  0.035
 27.375	 -0.005	 -0.005
 27.383	 -0.025	 -0.055
 27.391	 -0.115	 -0.055
 27.398	 -0.135	 -0.055
 27.406	 -0.115	 -0.045
 27.414	 -0.135	 -0.025
 27.422	 -0.165	  0.005
 27.430	 -0.205	 -0.045
 27.438	 -0.245	 -0.055
 27.445	 -0.235	 -0.045
 27.453	 -0.245	 -0.035
 27.461	 -0.235	 -0.025
 27.469	 -0.235	 -0.045
 27.477	 -0.215	 -0.035
 27.484	 -0.265	  0.095
 27.492	 -0.765	  0.185
 27.500	 -0.755	 -0.055
 27.508	  0.225	 -0.465
 27.516	  2.015	 -0.215
 27.523	  2.825	 -0.005
 27.531	  2.685	  0.585
 27.539	  1.685	 -0.245
 27.547	  0.045	 -0.805
 27.555	 -0.325	 -0.295
 27.562	 -0.275	 -0.065
 27.570	 -0.275	 -0.035
 27.578	 -0.325	 -0.045
 27.586	 -0.355	 -0.035
 27.594	 -0.355	 -0.055
 27.602	 -0.375	 -0.055
 27.609	 -0.325	 -0.065
 27.617	 -0.315	 -0.065
 27.625	 -0.315	 -0.075
 27.633	 -0.275	 -0.085
 27.641	 -0.255	 -0.075
 27.648	 -0.255	 -0.065
 27.656	 -0.215	 -0.105
 27.664	 -0.185	 -0.145
 27.672	 -0.195	 -0.145
 27.680	 -0.145	 -0.165
 27.688	 -0.145	 -0.175
 27.695	 -0.135	 -0.215
 27.703	 -0.095	 -0.215
 27.711	 -0.155	 -0.225
 27.719	 -0.155	 -0.265
 27.727	 -0.145	 -0.275
 27.734	 -0.195	 -0.255
 27.742	 -0.185	 -0.245
 27.750	 -0.185	 -0.235
 27.758	 -0.185	 -0.195
 27.766	 -0.155	 -0.135
 27.773	 -0.125	 -0.105
 27.781	 -0.155	 -0.065
 27.789	 -0.125	 -0.045
 27.797	 -0.135	 -0.005
 27.805	 -0.145	  0.005
 27.812	 -0.165	 -0.015
 27.820	 -0.165	  0.005
 27.828	 -0.155	  0.035
 27.836	 -0.175	  0.015
 27.844	 -0.125	  0.005
 27.852	 -0.155	  0.025
 27.859	 -0.165	  0.025
 27.867	 -0.155	 -0.005
 27.875	 -0.145	 -0.005
 27.883	 -0.145	  0.005
 27.891	 -0.155	  0.015
 27.898	 -0.175	  0.005
 27.906	 -0.145	 -0.015
 27.914	 -0.135	  0.005
 27.922	 -0.125	  0.035
 27.930	 -0.135	 -0.015
 27.938	 -0.145	 -0.015
 27.945	 -0.125	 -0.015
 27.953	 -0.165	 -0.005
 27.961	 -0.145	 -0.005
 27.969	 -0.085	  0.035
 27.977	 -0.115	  0.045
 27.984	 -0.105	  0.075
 27.992	 -0.065	  0.055
 28.000	  0.065	 -0.005
 28.008	 -0.015	 -0.045
 28.016	 -0.095	 -0.055
 28.023	 -0.155	 -0.035
 28.031	 -0.115	 -0.035
 28.039	 -0.125	  0.025
 28.047	 -0.185	 -0.005
 28.055	 -0.195	 -0.005
 28.062	 -0.235	 -0.015
 28.070	 -0.225	 -0.035
 28.078	 -0.225	 -0.005
 28.086	 -0.225	 -0.015
 28.094	 -0.205	 -0.015
 28.102	 -0.195	  0.085
 28.109	 -0.685	  0.245
 28.117	 -0.825	  0.005
 28.125	  0.015	 -0.585
 28.133	  1.785	 -0.315
 28.141	  2.765	  0.045
 28.148	  2.745	  0.755
 28.156	  2.005	 -0.215
 28.164	  0.375	 -0.885
 28.172	 -0.285	 -0.345
 28.180	 -0.285	 -0.005
 28.188	 -0.325	 -0.005
 28.195	 -0.365	 -0.025
 28.203	 -0.355	 -0.015
 28.211	 -0.365	 -0.045
 28.219	 -0.345	 -0.035
 28.227	 -0.335	 -0.055
 28.234	 -0.305	 -0.045
 28.242	 -0.305	 -0.045
 28.250	 -0.325	 -0.085
 28.258	 -0.295	 -0.095
 28.266	 -0.245	 -0.085
 28.273	 -0.225	 -0.085
 28.281	 -0.205	 -0.115
 28.289	 -0.165	 -0.125
 28.297	 -0.145	 -0.135
 28.305	 -0.155	 -0.155
 28.312	 -0.135	 -0.195
 28.320	 -0.105	 -0.215
 28.328	 -0.115	 -0.225
 28.336	 -0.125	 -0.245
 28.344	 -0.145	 -0.275
 28.352	 -0.155	 -0.255
 28.359	 -0.165	 -0.265
 28.367	 -0.175	 -0.245
 28.375	 -0.195	 -0.215
 28.383	 -0.145	 -0.165
 28.391	 -0.165	 -0.075
 28.398	 -0.135	 -0.085
 28.406	 -0.145	 -0.055
 28.414	 -0.155	 -0.025
 28.422	 -0.145	  0.015
 28.430	 -0.165	  0.025
 28.438	 -0.165	  0.005
 28.445	 -0.155	  0.055
 28.453	 -0.155	  0.025
 28.461	 -0.185	  0.015
 28.469	 -0.185	  0.005
 28.477	 -0.165	  0.025
 28.484	 -0.145	  0.045
 28.492	 -0.135	  0.025
 28.500	 -0.145	  0.005
 28.508	 -0.135	  0.025
 28.516	 -0.125	  0.045
 28.523	 -0.155	  0.015
 28.531	 -0.195	  0.005
 28.539	 -0.115	 -0.005
 28.547	 -0.135	  0.015
 28.555	 -0.155	  0.035
 28.562	 -0.135	  0.005
 28.570	 -0.165	 -0.005
 28.578	 -0.155	  0.005
 28.586	 -0.165	  0.015
 28.594	 -0.095	  0.025
 28.602	 -0.065	  0.065
 28.609	 -0.085	  0.075
 28.617	 -0.075	  0.085
 28.625	  0.015	 -0.005
 28.633	  0.055	 -0.025
 28.641	 -0.075	 -0.035
 28.648	 -0.125	 -0.025
 28.656	 -0.115	 -0.005
 28.664	 -0.115	  0.015
 28.672	 -0.145	  0.045
 28.680	 -0.175	  0.005
 28.688	 -0.215	 -0.005
 28.695	 -0.235	  0.005
 28.703	 -0.225	  0.035
 28.711	 -0.225	 -0.025
 28.719	 -0.195	  0.005
 28.727	 -0.165	  0.025
 28.734	 -0.235	  0.185
 28.742	 -0.805	  0.105
 28.750	 -0.715	 -0.275
 28.758	  0.545	 -0.705
 28.766	  2.325	 -0.185
 28.773	  2.875	  0.535
 28.781	  2.535	  0.845
 28.789	  1.335	 -0.515
 28.797	 -0.055	 -0.745
 28.805	 -0.325	 -0.225
 28.812	 -0.285	 -0.015
 28.820	 -0.295	 -0.015
 28.828	 -0.355	 -0.045
 28.836	 -0.365	 -0.045
 28.844	 -0.385	 -0.055
 28.852	 -0.345	 -0.045
 28.859	 -0.325	 -0.015
 28.867	 -0.315	 -0.075
 28.875	 -0.305	 -0.105
 28.883	 -0.325	 -0.095
 28.891	 -0.255	 -0.095
 28.898	 -0.245	 -0.125
 28.906	 -0.225	 -0.145
 28.914	 -0.185	 -0.135
 28.922	 -0.185	 -0.175
 28.930	 -0.175	 -0.205
 28.938	 -0.185	 -0.245
 28.945	 -0.135	 -0.265
 28.953	 -0.105	 -0.255
 28.961	 -0.165	 -0.305
 28.969	 -0.155	 -0.335
 28.977	 -0.155	 -0.335
 28.984	 -0.135	 -0.305
 28.992	 -0.185	 -0.335
 29.000	 -0.165	 -0.295
 29.008	 -0.185	 -0.225
 29.016	 -0.105	 -0.165
 29.023	 -0.115	 -0.125
 29.031	 -0.135	 -0.095
 29.039	 -0.115	 -0.035
 29.047	 -0.125	 -0.025
 29.055	 -0.135	  0.005
 29.062	 -0.175	  0.005
 29.070	 -0.165	  0.005
 29.078	 -0.185	  0.055
 29.086	 -0.195	  0.025
 29.094	 -0.175	 -0.015
 29.102	 -0.165	  0.015
 29.109	 -0.145	  0.045
 29.117	 -0.155	  0.045
 29.125	 -0.145	  0.025
 29.133	 -0.165	  0.005
 29.141	 -0.145	  0.015
 29.148	 -0.145	  0.035
 29.156	 -0.155	  0.015
 29.164	 -0.145	  0.005
 29.172	 -0.145	  0.015
 29.180	 -0.165	  0.035
 29.188	 -0.135	  0.015
 29.195	 -0.155	  0.025
 29.203	 -0.185	  0.015
 29.211	 -0.165	  0.005
 29.219	 -0.155	  0.025
 29.227	 -0.145	  0.045
 29.234	 -0.095	  0.075
 29.242	 -0.125	  0.065
 29.250	 -0.055	 -0.005
 29.258	  0.045	 -0.025
 29.266	 -0.035	 -0.025
 29.273	 -0.105	 -0.035
 29.281	 -0.165	 -0.045
 29.289	 -0.165	 -0.005
 29.297	 -0.165	  0.015
 29.305	 -0.135	 -0.015
 29.312	 -0.205	  0.025
 29.320	 -0.215	  0.005
 29.328	 -0.235	 -0.005
 29.336	 -0.215	 -0.005
 29.344	 -0.235	 -0.015
 29.352	 -0.225	  0.005
 29.359	 -0.295	  0.185
 29.367	 -0.855	  0.075
 29.375	 -0.575	 -0.305
 29.383	  0.685	 -0.565
 29.391	  2.325	 -0.035
 29.398	  2.765	  0.505
 29.406	  2.575	  0.905
 29.414	  1.175	 -0.415
 29.422	 -0.275	 -0.705
 29.430	 -0.385	 -0.235
 29.438	 -0.325	 -0.025
 29.445	 -0.355	 -0.055
 29.453	 -0.365	 -0.055
 29.461	 -0.375	 -0.065
 29.469	 -0.355	 -0.085
 29.477	 -0.335	 -0.045
 29.484	 -0.315	 -0.075
 29.492	 -0.375	 -0.065
 29.500	 -0.285	 -0.125
 29.508	 -0.265	 -0.115
 29.516	 -0.245	 -0.115
 29.523	 -0.235	 -0.135
 29.531	 -0.265	 -0.145
 29.539	 -0.245	 -0.175
 29.547	 -0.225	 -0.205
 29.555	 -0.215	 -0.225
 29.562	 -0.185	 -0.255
 29.570	 -0.185	 -0.285
 29.578	 -0.155	 -0.285
 29.586	 -0.175	 -0.305
 29.594	 -0.175	 -0.325
 29.602	 -0.185	 -0.335
 29.609	 -0.225	 -0.305
 29.617	 -0.235	 -0.285
 29.625	 -0.185	 -0.255
 29.633	 -0.215	 -0.225
 29.641	 -0.235	 -0.175
 29.648	 -0.135	 -0.125
 29.656	 -0.095	 -0.085
 29.664	 -0.185	 -0.045
 29.672	 -0.135	 -0.015
 29.680	 -0.115	  0.005
 29.688	 -0.165	 -0.015
 29.695	 -0.155	 -0.025
 29.703	 -0.185	 -0.005
 29.711	 -0.165	  0.025
 29.719	 -0.155	 -0.025
 29.727	 -0.185	 -0.025
 29.734	 -0.155	 -0.025
 29.742	 -0.175	  0.015
 29.750	 -0.155	 -0.035
 29.758	 -0.185	 -0.025
 29.766	 -0.155	  0.005
 29.773	 -0.155	 -0.015
 29.781	 -0.145	 -0.025
 29.789	 -0.175	 -0.005
 29.797	 -0.185	 -0.025
 29.805	 -0.175	 -0.025
 29.812	 -0.165	 -0.015
 29.820	 -0.145	 -0.015
 29.828	 -0.155	  0.005
 29.836	 -0.125	 -0.005
 29.844	 -0.125	  0.025
 29.852	 -0.115	  0.055
 29.859	 -0.115	  0.075
 29.867	 -0.025	 -0.005
 29.875	  0.005	 -0.065
 29.883	 -0.045	 -0.065
 29.891	 -0.085	 -0.035
 29.898	 -0.105	 -0.045
 29.906	 -0.135	 -0.035
 29.914	 -0.175	 -0.005
 29.922	 -0.135	 -0.005
 29.930	 -0.195	 -0.035
 29.938	 -0.225	 -0.055
 29.945	 -0.205	 -0.045
 29.953	 -0.255	 -0.025
 29.961	 -0.155	 -0.005
 29.969	 -0.175	  0.005
 29.977	 -0.285	  0.145
 29.984	 -0.835	  0.095
 29.992	 -0.565	 -0.335
 30.000	  0.865	 -0.605
 30.008	  2.475	 -0.185
 30.016	  2.885	  0.575
 30.023	  2.485	  0.475
 30.031	  0.995	 -0.805
 30.039	 -0.215	 -0.585
 30.047	 -0.265	 -0.125
 30.055	 -0.245	 -0.015
 30.062	 -0.295	 -0.025
 30.070	 -0.365	 -0.035
 30.078	 -0.365	 -0.035
 30.086	 -0.335	 -0.055
 30.094	 -0.325	 -0.055
 30.102	 -0.295	 -0.045
 30.109	 -0.295	 -0.075
 30.117	 -0.295	 -0.085
 30.125	 -0.285	 -0.095
 30.133	 -0.265	 -0.105
 30.141	 -0.225	 -0.095
 30.148	 -0.185	 -0.115
 30.156	 -0.195	 -0.135
 30.164	 -0.175	 -0.145
 30.172	 -0.125	 -0.155
 30.180	 -0.115	 -0.185
 30.188	 -0.105	 -0.225
 30.195	 -0.095	 -0.255
 30.203	 -0.105	 -0.265
 30.211	 -0.105	 -0.265
 30.219	 -0.135	 -0.295
 30.227	 -0.155	 -0.285
 30.234	 -0.165	 -0.275
 30.242	 -0.155	 -0.235
 30.250	 -0.155	 -0.215
 30.258	 -0.135	 -0.145
 30.266	 -0.115	 -0.095
 30.273	 -0.145	 -0.055
 30.281	 -0.155	 -0.045
 30.289	 -0.105	 -0.005
 30.297	 -0.125	  0.015
 30.305	 -0.175	  0.005
 30.312	 -0.175	  0.005
 30.320	 -0.165	  0.005
 30.328	 -0.165	  0.005
 30.336	 -0.145	  0.005
 30.344	 -0.155	  0.005
 30.352	 -0.145	  0.015
 30.359	 -0.145	  0.025
 30.367	 -0.185	  0.005
 30.375	 -0.155	 -0.005
 30.383	 -0.165	  0.015
 30.391	 -0.145	  0.015
 30.398	 -0.125	 -0.005
 30.406	 -0.165	 -0.015
 30.414	 -0.155	  0.005
 30.422	 -0.145	 -0.005
 30.430	 -0.175	 -0.005
 30.438	 -0.135	 -0.015
 30.445	 -0.175	 -0.005
 30.453	 -0.155	  0.005
 30.461	 -0.125	  0.025
 30.469	 -0.105	  0.035
 30.477	 -0.095	  0.045
 30.484	 -0.035	  0.045
 30.492	  0.065	 -0.045
 30.500	 -0.035	 -0.045
 30.508	 -0.065	 -0.065
 30.516	 -0.105	 -0.035
 30.523	 -0.125	 -0.025
 30.531	 -0.135	 -0.005
 30.539	 -0.135	 -0.015
 30.547	 -0.195	 -0.015
 30.555	 -0.195	 -0.025
 30.562	 -0.215	 -0.035
 30.570	 -0.205	 -0.025
 30.578	 -0.195	 -0.035
 30.586	 -0.185	 -0.035
 30.594	 -0.185	  0.065
 30.602	 -0.725	  0.185
 30.609	 -0.815	 -0.105
 30.617	  0.075	 -0.805
 30.625	  1.815	 -0.285
 30.633	  2.745	  0.275
 30.641	  2.685	  0.945
 30.648	  1.935	 -0.075
 30.656	  0.305	 -0.865
 30.664	 -0.295	 -0.425
 30.672	 -0.275	 -0.065
 30.680	 -0.285	 -0.015
 30.688	 -0.355	 -0.085
 30.695	 -0.355	 -0.095
 30.703	 -0.375	 -0.085
 30.711	 -0.335	 -0.095
 30.719	 -0.315	 -0.085
 30.727	 -0.295	 -0.095
 30.734	 -0.315	 -0.095
 30.742	 -0.285	 -0.115
 30.750	 -0.245	 -0.145
 30.758	 -0.245	 -0.135
 30.766	 -0.265	 -0.175
 30.773	 -0.205	 -0.195
 30.781	 -0.205	 -0.215
 30.789	 -0.145	 -0.235
 30.797	 -0.125	 -0.255
 30.805	 -0.125	 -0.275
 30.812	 -0.135	 -0.315
 30.820	 -0.125	 -0.315
 30.828	 -0.125	 -0.345
 30.836	 -0.135	 -0.385
 30.844	 -0.155	 -0.395
 30.852	 -0.175	 -0.375
 30.859	 -0.175	 -0.345
 30.867	 -0.195	 -0.305
 30.875	 -0.145	 -0.245
 30.883	 -0.105	 -0.175
 30.891	 -0.105	 -0.115
 30.898	 -0.085	 -0.105
 30.906	 -0.075	 -0.055
 30.914	 -0.095	 -0.035
 30.922	 -0.115	  0.015
 30.930	 -0.135	  0.005
 30.938	 -0.145	 -0.035
 30.945	 -0.145	 -0.005
 30.953	 -0.165	  0.015
 30.961	 -0.135	  0.005
 30.969	 -0.135	 -0.025
 30.977	 -0.135	 -0.015
 30.984	 -0.125	 -0.005
 30.992	 -0.135	 -0.025
 31.000	 -0.155	 -0.035
 31.008	 -0.145	 -0.015
 31.016	 -0.175	 -0.005
 31.023	 -0.145	 -0.025
 31.031	 -0.135	 -0.025
 31.039	 -0.135	 -0.035
 31.047	 -0.145	 -0.025
 31.055	 -0.145	 -0.025
 31.062	 -0.175	 -0.035
 31.070	 -0.155	 -0.025
 31.078	 -0.135	 -0.005
 31.086	 -0.125	  0.025
 31.094	 -0.115	  0.005
 31.102	 -0.105	 -0.005
 31.109	 -0.025	 -0.015
 31.117	  0.035	 -0.085
 31.125	 -0.045	 -0.085
 31.133	 -0.065	 -0.075
 31.141	 -0.145	 -0.065
 31.148	 -0.135	 -0.045
 31.156	 -0.155	 -0.025
 31.164	 -0.155	 -0.055
 31.172	 -0.185	 -0.035
 31.180	 -0.255	 -0.065
 31.188	 -0.235	 -0.065
 31.195	 -0.225	 -0.065
 31.203	 -0.175	 -0.045
 31.211	 -0.205	 -0.035
 31.219	 -0.265	  0.055
 31.227	 -0.855	  0.005
 31.234	 -0.645	 -0.225
 31.242	  0.605	 -0.505
 31.250	  2.235	 -0.105
 31.258	  2.705	  0.365
 31.266	  2.525	  0.785
 31.273	  1.205	 -0.285
 31.281	 -0.255	 -0.665
 31.289	 -0.405	 -0.315
 31.297	 -0.285	 -0.105
 31.305	 -0.325	 -0.085
 31.312	 -0.385	 -0.125
 31.320	 -0.395	 -0.135
 31.328	 -0.405	 -0.115
 31.336	 -0.345	 -0.115
 31.344	 -0.325	 -0.125
 31.352	 -0.355	 -0.135
 31.359	 -0.345	 -0.145
 31.367	 -0.275	 -0.165
 31.375	 -0.285	 -0.175
 31.383	 -0.245	 -0.185
 31.391	 -0.255	 -0.185
 31.398	 -0.225	 -0.215
 31.406	 -0.265	 -0.235
 31.414	 -0.225	 -0.255
 31.422	 -0.195	 -0.275
 31.430	 -0.165	 -0.315
 31.438	 -0.165	 -0.345
 31.445	 -0.175	 -0.345
 31.453	 -0.245	 -0.335
 31.461	 -0.225	 -0.345
 31.469	 -0.215	 -0.355
 31.477	 -0.205	 -0.335
 31.484	 -0.175	 -0.305
 31.492	 -0.245	 -0.255
 31.500	 -0.205	 -0.215
 31.508	 -0.135	 -0.165
 31.516	 -0.105	 -0.095
 31.523	 -0.135	 -0.065
 31.531	 -0.185	 -0.055
 31.539	 -0.165	 -0.065
 31.547	 -0.175	 -0.045
 31.555	 -0.175	 -0.025
 31.562	 -0.215	 -0.035
 31.570	 -0.205	 -0.025
 31.578	 -0.175	 -0.015
 31.586	 -0.215	 -0.015
 31.594	 -0.235	 -0.035
 31.602	 -0.185	 -0.035
 31.609	 -0.175	 -0.025
 31.617	 -0.175	 -0.045
 31.625	 -0.205	 -0.035
 31.633	 -0.175	 -0.015
 31.641	 -0.195	 -0.035
 31.648	 -0.205	 -0.055
 31.656	 -0.225	 -0.045
 31.664	 -0.215	 -0.045
 31.672	 -0.185	 -0.035
 31.680	 -0.245	 -0.045
 31.688	 -0.205	 -0.055
 31.695	 -0.195	 -0.045
 31.703	 -0.245	 -0.015
 31.711	 -0.145	  0.015
 31.719	 -0.125	  0.035
 31.727	 -0.165	  0.025
 31.734	 -0.015	  0.025
 31.742	 -0.025	 -0.055
 31.750	 -0.105	 -0.095
 31.758	 -0.135	 -0.075
 31.766	 -0.185	 -0.075
 31.773	 -0.195	 -0.055
 31.781	 -0.195	 -0.035
 31.789	 -0.195	 -0.065
 31.797	 -0.265	 -0.055
 31.805	 -0.265	 -0.035
 31.812	 -0.295	 -0.075
 31.820	 -0.285	 -0.085
 31.828	 -0.315	 -0.055
 31.836	 -0.205	 -0.045
 31.844	 -0.465	  0.165
 31.852	 -0.945	  0.085
 31.859	 -0.535	 -0.275
 31.867	  0.945	 -0.495
 31.875	  2.475	 -0.345
 31.883	  2.805	  0.365
 31.891	  2.435	  0.215
 31.898	  0.635	 -0.905
 31.906	 -0.385	 -0.535
 31.914	 -0.335	 -0.075
 31.922	 -0.315	 -0.025
 31.930	 -0.355	 -0.045
 31.938	 -0.415	 -0.065
 31.945	 -0.435	 -0.085
 31.953	 -0.385	 -0.055
 31.961	 -0.415	 -0.065
 31.969	 -0.405	 -0.065
 31.977	 -0.415	 -0.055
 31.984	 -0.345	 -0.095
 31.992	 -0.355	 -0.085
 32.000	 -0.335	 -0.075
 32.008	 -0.285	 -0.115
 32.016	 -0.245	 -0.125
 32.023	 -0.215	 -0.125
 32.031	 -0.185	 -0.115
 32.039	 -0.205	 -0.155
 32.047	 -0.185	 -0.185
 32.055	 -0.205	 -0.195
 32.062	 -0.165	 -0.215
 32.070	 -0.185	 -0.225
 32.078	 -0.185	 -0.245
 32.086	 -0.215	 -0.245
 32.094	 -0.225	 -0.225
 32.102	 -0.275	 -0.255
 32.109	 -0.255	 -0.205
 32.117	 -0.225	 -0.185
 32.125	 -0.235	 -0.125
 32.133	 -0.185	 -0.095
 32.141	 -0.155	 -0.075
 32.148	 -0.155	 -0.045
 32.156	 -0.155	 -0.025
 32.164	 -0.185	 -0.005
 32.172	 -0.215	 -0.025
 32.180	 -0.215	 -0.015
 32.188	 -0.205	 -0.005
 32.195	 -0.195	 -0.005
 32.203	 -0.195	  0.015
 32.211	 -0.185	 -0.005
 32.219	 -0.185	  0.005
 32.227	 -0.165	 -0.005
 32.234	 -0.205	 -0.015
 32.242	 -0.195	 -0.015
 32.250	 -0.175	 -0.025
 32.258	 -0.175	 -0.005
 32.266	 -0.175	  0.025
 32.273	 -0.185	 -0.025
 32.281	 -0.175	 -0.025
 32.289	 -0.155	 -0.015
 32.297	 -0.175	  0.005
 32.305	 -0.185	 -0.015
 32.312	 -0.165	 -0.005
 32.320	 -0.105	  0.025
 32.328	 -0.095	  0.055
 32.336	 -0.115	  0.075
 32.344	 -0.105	  0.095
 32.352	 -0.045	  0.025
 32.359	 -0.025	 -0.015
 32.367	 -0.035	 -0.045
 32.375	 -0.105	 -0.055
 32.383	 -0.145	 -0.025
 32.391	 -0.125	 -0.005
 32.398	 -0.145	  0.025
 32.406	 -0.205	 -0.015
 32.414	 -0.215	 -0.045
 32.422	 -0.225	 -0.015
 32.430	 -0.225	 -0.020
 32.438	 -0.225	 -0.040
 32.445	 -0.255	 -0.040
 32.453	 -0.235	 -0.010
 32.461	 -0.185	  0.000
 32.469	 -0.465	  0.230
 32.477	 -0.865	  0.050
 32.484	 -0.505	 -0.470
 32.492	  1.125	 -0.480
 32.500	  2.595	 -0.100
 32.508	  2.885	  0.610
 32.516	  2.405	  0.340
 32.523	  0.795	 -0.870
 32.531	 -0.215	 -0.580
 32.539	 -0.315	 -0.070
 32.547	 -0.315	 -0.030
 32.555	 -0.325	 -0.020
 32.562	 -0.365	 -0.050
 32.570	 -0.365	 -0.050
 32.578	 -0.375	 -0.050
 32.586	 -0.365	 -0.040
 32.594	 -0.295	 -0.060
 32.602	 -0.335	 -0.080
 32.609	 -0.295	 -0.070
 32.617	 -0.275	 -0.070
 32.625	 -0.285	 -0.075
 32.633	 -0.275	 -0.105
 32.641	 -0.215	 -0.105
 32.648	 -0.205	 -0.135
 32.656	 -0.155	 -0.155
 32.664	 -0.155	 -0.165
 32.672	 -0.135	 -0.195
 32.680	 -0.125	 -0.215
 32.688	 -0.105	 -0.255
 32.695	 -0.135	 -0.265
 32.703	 -0.145	 -0.245
 32.711	 -0.175	 -0.275
 32.719	 -0.185	 -0.275
 32.727	 -0.195	 -0.255
 32.734	 -0.185	 -0.205
 32.742	 -0.155	 -0.155
 32.750	 -0.145	 -0.125
 32.758	 -0.145	 -0.075
 32.766	 -0.145	 -0.015
 32.773	 -0.145	 -0.005
 32.781	 -0.145	 -0.005
 32.789	 -0.155	  0.025
 32.797	 -0.155	  0.035
 32.805	 -0.195	  0.045
 32.812	 -0.165	  0.025
 32.820	 -0.165	  0.015
 32.828	 -0.135	  0.035
 32.836	 -0.165	  0.045
 32.844	 -0.155	  0.005
 32.852	 -0.175	  0.015
 32.859	 -0.145	  0.015
 32.867	 -0.105	  0.025
 32.875	 -0.125	  0.015
 32.883	 -0.155	  0.025
 32.891	 -0.155	  0.005
 32.898	 -0.125	  0.015
 32.906	 -0.155	  0.005
 32.914	 -0.145	  0.015
 32.922	 -0.135	  0.015
 32.930	 -0.135	  0.005
 32.938	 -0.125	  0.005
 32.945	 -0.175	  0.005
 32.953	 -0.155	  0.025
 32.961	 -0.105	  0.025
 32.969	 -0.065	  0.055
 32.977	 -0.105	  0.045
 32.984	 -0.085	  0.065
 32.992	  0.055	  0.045
 33.000	  0.015	 -0.045
 33.008	 -0.045	 -0.055
 33.016	 -0.095	 -0.015
 33.023	 -0.115	  0.005
 33.031	 -0.125	  0.005
 33.039	 -0.135	 -0.005
 33.047	 -0.195	 -0.015
 33.055	 -0.225	 -0.005
 33.062	 -0.225	 -0.025
 33.070	 -0.235	  0.005
 33.078	 -0.195	 -0.005
 33.086	 -0.205	 -0.025
 33.094	 -0.165	  0.005
 33.102	 -0.435	  0.205
 33.109	 -0.795	  0.005
 33.117	 -0.455	 -0.495
 33.125	  1.005	 -0.555
 33.133	  2.455	 -0.055
 33.141	  2.705	  0.745
 33.148	  2.315	  0.655
 33.156	  1.045	 -0.645
 33.164	 -0.135	 -0.625
 33.172	 -0.305	 -0.215
 33.180	 -0.275	 -0.045
 33.188	 -0.345	 -0.055
 33.195	 -0.345	 -0.055
 33.203	 -0.345	 -0.045
 33.211	 -0.385	 -0.055
 33.219	 -0.365	 -0.085
 33.227	 -0.315	 -0.085
 33.234	 -0.315	 -0.085
 33.242	 -0.305	 -0.085
 33.250	 -0.315	 -0.125
 33.258	 -0.295	 -0.105
 33.266	 -0.245	 -0.105
 33.273	 -0.225	 -0.135
 33.281	 -0.215	 -0.165
 33.289	 -0.205	 -0.185
 33.297	 -0.195	 -0.195
 33.305	 -0.185	 -0.205
 33.312	 -0.175	 -0.255
 33.320	 -0.145	 -0.285
 33.328	 -0.135	 -0.285
 33.336	 -0.125	 -0.325
 33.344	 -0.155	 -0.345
 33.352	 -0.165	 -0.345
 33.359	 -0.235	 -0.305
 33.367	 -0.195	 -0.305
 33.375	 -0.215	 -0.275
 33.383	 -0.195	 -0.225
 33.391	 -0.135	 -0.155
 33.398	 -0.125	 -0.125
 33.406	 -0.135	 -0.075
 33.414	 -0.155	  0.005
 33.422	 -0.175	 -0.025
 33.430	 -0.185	 -0.005
 33.438	 -0.185	  0.005
 33.445	 -0.185	 -0.005
 33.453	 -0.165	  0.005
 33.461	 -0.195	  0.035
 33.469	 -0.145	  0.005
 33.477	 -0.165	 -0.005
 33.484	 -0.155	 -0.015
 33.492	 -0.175	  0.015
 33.500	 -0.145	 -0.015
 33.508	 -0.145	 -0.005
 33.516	 -0.135	  0.035
 33.523	 -0.135	  0.015
 33.531	 -0.165	  0.015
 33.539	 -0.175	  0.005
 33.547	 -0.155	  0.005
 33.555	 -0.125	  0.005
 33.562	 -0.135	 -0.025
 33.570	 -0.165	 -0.005
 33.578	 -0.155	  0.025
 33.586	 -0.155	  0.005
 33.594	 -0.145	 -0.015
 33.602	 -0.145	 -0.005
 33.609	 -0.115	  0.035
 33.617	 -0.065	  0.075
 33.625	 -0.085	  0.045
 33.633	 -0.025	  0.045
 33.641	  0.035	 -0.005
 33.648	 -0.045	 -0.035
 33.656	 -0.045	 -0.065
 33.664	 -0.085	 -0.025
 33.672	 -0.095	 -0.015
 33.680	 -0.125	  0.015
 33.688	 -0.165	 -0.025
 33.695	 -0.165	 -0.015
 33.703	 -0.195	 -0.005
 33.711	 -0.235	 -0.015
 33.719	 -0.205	 -0.045
 33.727	 -0.165	 -0.025
 33.734	 -0.165	 -0.025
 33.742	 -0.165	  0.045
 33.750	 -0.645	  0.145
 33.758	 -0.755	 -0.105
 33.766	 -0.065	 -0.665
 33.773	  1.695	 -0.285
 33.781	  2.645	  0.295
 33.789	  2.525	  1.005
 33.797	  1.795	  0.185
 33.805	  0.125	 -0.715
 33.812	 -0.365	 -0.415
 33.820	 -0.315	 -0.115
 33.828	 -0.315	 -0.045
 33.836	 -0.315	 -0.075
 33.844	 -0.365	 -0.085
 33.852	 -0.325	 -0.095
 33.859	 -0.315	 -0.065
 33.867	 -0.325	 -0.125
 33.875	 -0.315	 -0.115
 33.883	 -0.295	 -0.115
 33.891	 -0.265	 -0.145
 33.898	 -0.235	 -0.135
 33.906	 -0.265	 -0.165
 33.914	 -0.235	 -0.185
 33.922	 -0.195	 -0.195
 33.930	 -0.175	 -0.205
 33.938	 -0.175	 -0.255
 33.945	 -0.165	 -0.275
 33.953	 -0.145	 -0.285
 33.961	 -0.185	 -0.325
 33.969	 -0.145	 -0.365
 33.977	 -0.145	 -0.355
 33.984	 -0.155	 -0.355
 33.992	 -0.175	 -0.375
 34.000	 -0.195	 -0.355
 34.008	 -0.145	 -0.305
 34.016	 -0.135	 -0.275
 34.023	 -0.125	 -0.235
 34.031	 -0.125	 -0.175
 34.039	 -0.085	 -0.105
 34.047	 -0.065	 -0.095
 34.055	 -0.095	 -0.045
 34.062	 -0.115	 -0.025
 34.070	 -0.135	 -0.025
 34.078	 -0.145	 -0.005
 34.086	 -0.145	 -0.005
 34.094	 -0.165	 -0.015
 34.102	 -0.145	  0.005
 34.109	 -0.165	 -0.025
 34.117	 -0.155	 -0.035
 34.125	 -0.145	 -0.025
 34.133	 -0.175	 -0.005
 34.141	 -0.135	 -0.005
 34.148	 -0.135	  0.005
 34.156	 -0.135	 -0.035
 34.164	 -0.145	 -0.015
 34.172	 -0.145	 -0.015
 34.180	 -0.165	  0.005
 34.188	 -0.175	 -0.025
 34.195	 -0.175	 -0.035
 34.203	 -0.165	 -0.015
 34.211	 -0.155	 -0.025
 34.219	 -0.175	 -0.035
 34.227	 -0.165	 -0.015
 34.234	 -0.135	 -0.015
 34.242	 -0.135	 -0.045
 34.250	 -0.145	 -0.025
 34.258	 -0.125	  0.015
 34.266	 -0.105	  0.025
 34.273	 -0.125	  0.025
 34.281	 -0.105	  0.035
 34.289	 -0.025	  0.005
 34.297	  0.035	 -0.035
 34.305	 -0.035	 -0.035
 34.312	 -0.105	 -0.065
 34.320	 -0.135	 -0.075
 34.328	 -0.115	 -0.015
 34.336	 -0.155	 -0.015
 34.344	 -0.195	 -0.045
 34.352	 -0.195	 -0.015
 34.359	 -0.215	 -0.045
 34.367	 -0.215	 -0.055
 34.375	 -0.245	 -0.055
 34.383	 -0.195	 -0.035
 34.391	 -0.105	  0.035
 34.398	 -0.485	  0.165
 34.406	 -0.855	 -0.045
 34.414	 -0.145	 -0.455
 34.422	  1.525	 -0.315
 34.430	  2.715	 -0.005
 34.438	  2.735	  0.655
 34.445	  2.205	  0.315
 34.453	  0.375	 -0.855
 34.461	 -0.425	 -0.545
 34.469	 -0.295	 -0.155
 34.477	 -0.305	 -0.055
 34.484	 -0.375	 -0.055
 34.492	 -0.345	 -0.085
 34.500	 -0.375	 -0.055
 34.508	 -0.375	 -0.095
 34.516	 -0.335	 -0.095
 34.523	 -0.345	 -0.095
 34.531	 -0.315	 -0.115
 34.539	 -0.275	 -0.095
 34.547	 -0.295	 -0.095
 34.555	 -0.285	 -0.115
 34.562	 -0.235	 -0.135
 34.570	 -0.215	 -0.165
 34.578	 -0.185	 -0.175
 34.586	 -0.185	 -0.175
 34.594	 -0.175	 -0.215
 34.602	 -0.145	 -0.215
 34.609	 -0.135	 -0.235
 34.617	 -0.195	 -0.295
 34.625	 -0.185	 -0.315
 34.633	 -0.175	 -0.315
 34.641	 -0.205	 -0.275
 34.648	 -0.215	 -0.235
 34.656	 -0.165	 -0.275
 34.664	 -0.175	 -0.245
 34.672	 -0.165	 -0.185
 34.680	 -0.125	 -0.155
 34.688	 -0.175	 -0.125
 34.695	 -0.115	 -0.075
 34.703	 -0.115	 -0.015
 34.711	 -0.145	 -0.015
 34.719	 -0.145	 -0.045
 34.727	 -0.165	  0.005
 34.734	 -0.185	  0.015
 34.742	 -0.175	 -0.025
 34.750	 -0.185	 -0.015
 34.758	 -0.175	 -0.015
 34.766	 -0.145	  0.005
 34.773	 -0.165	  0.005
 34.781	 -0.185	 -0.005
 34.789	 -0.175	 -0.025
 34.797	 -0.155	 -0.015
 34.805	 -0.155	 -0.015
 34.812	 -0.165	 -0.025
 34.820	 -0.165	 -0.015
 34.828	 -0.175	 -0.005
 34.836	 -0.155	 -0.035
 34.844	 -0.165	 -0.025
 34.852	 -0.155	 -0.035
 34.859	 -0.155	 -0.025
 34.867	 -0.185	 -0.045
 34.875	 -0.195	 -0.015
 34.883	 -0.175	 -0.025
 34.891	 -0.105	 -0.005
 34.898	 -0.085	  0.025
 34.906	 -0.125	  0.045
 34.914	 -0.145	  0.035
 34.922	  0.035	  0.025
 34.930	  0.005	 -0.035
 34.938	 -0.065	 -0.055
 34.945	 -0.085	 -0.095
 34.953	 -0.105	 -0.045
 34.961	 -0.115	 -0.005
 34.969	 -0.205	 -0.025
 34.977	 -0.185	 -0.055
 34.984	 -0.205	 -0.035
 34.992	 -0.195	 -0.045
 35.000	 -0.255	 -0.065
 35.008	 -0.225	 -0.045
 35.016	 -0.205	 -0.035
 35.023	 -0.165	 -0.015
 35.031	 -0.445	  0.245
 35.039	 -0.875	  0.045
 35.047	 -0.315	 -0.445
 35.055	  1.265	 -0.435
 35.062	  2.605	 -0.185
 35.070	  2.835	  0.585
 35.078	  2.315	  0.275
 35.086	  0.635	 -0.845
 35.094	 -0.325	 -0.565
 35.102	 -0.275	 -0.105
 35.109	 -0.255	 -0.015
 35.117	 -0.325	 -0.035
 35.125	 -0.385	 -0.035
 35.133	 -0.385	 -0.035
 35.141	 -0.335	 -0.065
 35.148	 -0.355	 -0.075
 35.156	 -0.305	 -0.075
 35.164	 -0.285	 -0.075
 35.172	 -0.305	 -0.065
 35.180	 -0.275	 -0.115
 35.188	 -0.255	 -0.125
 35.195	 -0.245	 -0.125
 35.203	 -0.165	 -0.115
 35.211	 -0.175	 -0.125
 35.219	 -0.175	 -0.175
 35.227	 -0.145	 -0.185
 35.234	 -0.115	 -0.215
 35.242	 -0.115	 -0.235
 35.250	 -0.125	 -0.265
 35.258	 -0.105	 -0.275
 35.266	 -0.125	 -0.285
 35.273	 -0.155	 -0.275
 35.281	 -0.185	 -0.285
 35.289	 -0.185	 -0.255
 35.297	 -0.175	 -0.225
 35.305	 -0.185	 -0.185
 35.312	 -0.125	 -0.135
 35.320	 -0.135	 -0.105
 35.328	 -0.125	 -0.035
 35.336	 -0.135	 -0.045
 35.344	 -0.145	 -0.025
 35.352	 -0.195	 -0.005
 35.359	 -0.145	 -0.005
 35.367	 -0.145	 -0.005
 35.375	 -0.165	 -0.005
 35.383	 -0.165	  0.025
 35.391	 -0.155	 -0.005
 35.398	 -0.155	 -0.005
 35.406	 -0.175	 -0.025
 35.414	 -0.125	 -0.005
 35.422	 -0.115	  0.005
 35.430	 -0.115	  0.025
 35.438	 -0.145	 -0.025
 35.445	 -0.145	 -0.015
 35.453	 -0.125	 -0.005
 35.461	 -0.125	 -0.005
 35.469	 -0.135	  0.005
 35.477	 -0.145	 -0.035
 35.484	 -0.115	 -0.005
 35.492	 -0.175	 -0.015
 35.500	 -0.135	 -0.035
 35.508	 -0.155	 -0.015
 35.516	 -0.135	 -0.005
 35.523	 -0.155	 -0.005
 35.531	 -0.095	 -0.005
 35.539	 -0.055	  0.025
 35.547	 -0.065	  0.065
 35.555	 -0.065	  0.035
 35.562	  0.065	 -0.005
 35.570	  0.015	 -0.045
 35.578	 -0.035	 -0.065
 35.586	 -0.105	 -0.065
 35.594	 -0.085	 -0.055
 35.602	 -0.105	  0.025
 35.609	 -0.115	 -0.025
 35.617	 -0.165	 -0.055
 35.625	 -0.185	 -0.055
 35.633	 -0.195	 -0.045
 35.641	 -0.195	 -0.035
 35.648	 -0.175	 -0.035
 35.656	 -0.185	 -0.055
 35.664	 -0.145	 -0.035
 35.672	 -0.325	  0.185
 35.680	 -0.775	  0.015
 35.688	 -0.295	 -0.525
 35.695	  1.355	 -0.535
 35.703	  2.695	 -0.055
 35.711	  2.835	  0.765
 35.719	  2.275	  0.405
 35.727	  0.745	 -0.785
 35.734	 -0.225	 -0.595
 35.742	 -0.275	 -0.155
 35.750	 -0.245	 -0.035
 35.758	 -0.315	 -0.065
 35.766	 -0.305	 -0.075
 35.773	 -0.355	 -0.075
 35.781	 -0.325	 -0.085
 35.789	 -0.315	 -0.055
 35.797	 -0.295	 -0.075
 35.805	 -0.275	 -0.105
 35.812	 -0.295	 -0.115
 35.820	 -0.265	 -0.135
 35.828	 -0.215	 -0.075
 35.836	 -0.185	 -0.125
 35.844	 -0.195	 -0.155
 35.852	 -0.155	 -0.165
 35.859	 -0.155	 -0.165
 35.867	 -0.155	 -0.195
 35.875	 -0.115	 -0.195
 35.883	 -0.095	 -0.265
 35.891	 -0.085	 -0.275
 35.898	 -0.095	 -0.275
 35.906	 -0.095	 -0.315
 35.914	 -0.115	 -0.315
 35.922	 -0.135	 -0.335
 35.930	 -0.115	 -0.325
 35.938	 -0.135	 -0.275
 35.945	 -0.145	 -0.245
 35.953	 -0.135	 -0.195
 35.961	 -0.125	 -0.145
 35.969	 -0.085	 -0.105
 35.977	 -0.095	 -0.065
 35.984	 -0.115	 -0.005
 35.992	 -0.125	 -0.025
 36.000	 -0.145	 -0.005
 36.008	 -0.135	 -0.005
 36.016	 -0.165	  0.025
 36.023	 -0.145	 -0.005
 36.031	 -0.135	 -0.025
 36.039	 -0.125	  0.025
 36.047	 -0.125	  0.015
 36.055	 -0.135	  0.015
 36.062	 -0.125	 -0.025
 36.070	 -0.135	 -0.005
 36.078	 -0.115	  0.015
 36.086	 -0.125	  0.025
 36.094	 -0.125	 -0.025
 36.102	 -0.135	 -0.025
 36.109	 -0.105	  0.005
 36.117	 -0.095	  0.005
 36.125	 -0.125	  0.015
 36.133	 -0.125	 -0.035
 36.141	 -0.145	 -0.005
 36.148	 -0.145	 -0.005
 36.156	 -0.125	  0.025
 36.164	 -0.125	 -0.015
 36.172	 -0.095	  0.005
 36.180	 -0.035	  0.025
 36.188	 -0.055	  0.045
 36.195	 -0.085	  0.065
 36.203	  0.035	  0.065
 36.211	  0.035	 -0.015
 36.219	  0.005	 -0.055
 36.227	 -0.065	 -0.055
 36.234	 -0.115	 -0.025
 36.242	 -0.085	  0.005
 36.250	 -0.145	  0.035
 36.258	 -0.145	 -0.035
 36.266	 -0.165	 -0.025
 36.273	 -0.195	 -0.035
 36.281	 -0.165	 -0.015
 36.289	 -0.175	 -0.025
 36.297	 -0.175	 -0.005
 36.305	 -0.125	 -0.015
 36.312	 -0.335	  0.175
 36.320	 -0.795	 -0.005
 36.328	 -0.485	 -0.455
 36.336	  1.045	 -0.655
 36.344	  2.575	 -0.015
 36.352	  2.775	  0.825
 36.359	  2.355	  0.655
 36.367	  0.755	 -0.725
 36.375	 -0.285	 -0.625
 36.383	 -0.275	 -0.155
 36.391	 -0.245	 -0.035
 36.398	 -0.305	 -0.045
 36.406	 -0.315	 -0.085
 36.414	 -0.355	 -0.095
 36.422	 -0.335	 -0.085
 36.430	 -0.325	 -0.095
 36.438	 -0.285	 -0.095
 36.445	 -0.285	 -0.125
 36.453	 -0.265	 -0.125
 36.461	 -0.245	 -0.125
 36.469	 -0.235	 -0.125
 36.477	 -0.185	 -0.145
 36.484	 -0.195	 -0.175
 36.492	 -0.175	 -0.235
 36.500	 -0.135	 -0.225
 36.508	 -0.125	 -0.235
 36.516	 -0.145	 -0.245
 36.523	 -0.105	 -0.285
 36.531	 -0.105	 -0.355
 36.539	 -0.095	 -0.355
 36.547	 -0.085	 -0.335
 36.555	 -0.195	 -0.345
 36.562	 -0.145	 -0.345
 36.570	 -0.135	 -0.345
 36.578	 -0.125	 -0.315
 36.586	 -0.105	 -0.245
 36.594	 -0.115	 -0.195
 36.602	 -0.075	 -0.135
 36.609	 -0.085	 -0.075
 36.617	 -0.075	 -0.055
 36.625	 -0.115	 -0.055
 36.633	 -0.125	 -0.015
 36.641	 -0.125	  0.025
 36.648	 -0.135	 -0.005
 36.656	 -0.145	 -0.015
 36.664	 -0.165	  0.005
 36.672	 -0.145	  0.025
 36.680	 -0.135	  0.005
 36.688	 -0.165	 -0.015
 36.695	 -0.165	 -0.005
 36.703	 -0.135	  0.005
 36.711	 -0.145	  0.015
 36.719	 -0.145	  0.005
 36.727	 -0.165	  0.005
 36.734	 -0.135	  0.015
 36.742	 -0.155	 -0.015
 36.750	 -0.145	 -0.005
 36.758	 -0.175	  0.005
 36.766	 -0.125	  0.005
 36.773	 -0.155	  0.005
 36.781	 -0.145	 -0.005
 36.789	 -0.145	 -0.015
 36.797	 -0.155	 -0.005
 36.805	 -0.125	  0.005
 36.812	 -0.095	  0.025
 36.820	 -0.095	  0.045
 36.828	 -0.075	  0.075
 36.836	  0.015	  0.055
 36.844	  0.005	  0.005
 36.852	 -0.045	 -0.095
 36.859	 -0.165	 -0.035
 36.867	 -0.115	 -0.005
 36.875	 -0.115	 -0.015
 36.883	 -0.125	 -0.005
 36.891	 -0.145	  0.025
 36.898	 -0.235	 -0.025
 36.906	 -0.265	 -0.035
 36.914	 -0.205	 -0.035
 36.922	 -0.185	 -0.015
 36.930	 -0.185	 -0.005
 36.938	 -0.175	 -0.015
 36.945	 -0.215	  0.105
 36.953	 -0.835	  0.085
 36.961	 -0.735	 -0.195
 36.969	  0.455	 -0.655
 36.977	  2.125	 -0.125
 36.984	  2.785	  0.385
 36.992	  2.525	  1.005
 37.000	  1.655	 -0.045
 37.008	 -0.015	 -0.815
 37.016	 -0.375	 -0.335
 37.023	 -0.285	 -0.055
 37.031	 -0.325	 -0.075
 37.039	 -0.375	 -0.095
 37.047	 -0.335	 -0.065
 37.055	 -0.315	 -0.075
 37.062	 -0.385	 -0.095
 37.070	 -0.335	 -0.125
 37.078	 -0.295	 -0.105
 37.086	 -0.365	 -0.125
 37.094	 -0.275	 -0.125
 37.102	 -0.235	 -0.145
 37.109	 -0.245	 -0.135
 37.117	 -0.225	 -0.165
 37.125	 -0.205	 -0.195
 37.133	 -0.185	 -0.205
 37.141	 -0.175	 -0.245
 37.148	 -0.165	 -0.275
 37.156	 -0.175	 -0.285
 37.164	 -0.155	 -0.305
 37.172	 -0.155	 -0.315
 37.180	 -0.125	 -0.325
 37.188	 -0.205	 -0.345
 37.195	 -0.195	 -0.335
 37.203	 -0.165	 -0.285
 37.211	 -0.215	 -0.285
 37.219	 -0.195	 -0.235
 37.227	 -0.135	 -0.185
 37.234	 -0.105	 -0.125
 37.242	 -0.095	 -0.055
 37.250	 -0.115	 -0.035
 37.258	 -0.165	 -0.035
 37.266	 -0.145	  0.005
 37.273	 -0.175	  0.015
 37.281	 -0.175	 -0.005
 37.289	 -0.145	  0.015
 37.297	 -0.125	  0.035
 37.305	 -0.145	  0.005
 37.312	 -0.175	 -0.015
 37.320	 -0.185	 -0.005
 37.328	 -0.145	  0.015
 37.336	 -0.155	  0.015
 37.344	 -0.155	 -0.015
 37.352	 -0.145	  0.035
 37.359	 -0.175	  0.005
 37.367	 -0.165	  0.005
 37.375	 -0.165	 -0.005
 37.383	 -0.135	  0.005
 37.391	 -0.115	  0.025
 37.398	 -0.155	  0.005
 37.406	 -0.185	  0.005
 37.414	 -0.155	  0.005
 37.422	 -0.155	  0.015
 37.430	 -0.165	  0.005
 37.438	 -0.145	  0.045
 37.445	 -0.075	  0.085
 37.453	 -0.105	  0.075
 37.461	 -0.105	  0.075
 37.469	  0.035	  0.025
 37.477	  0.005	 -0.005
 37.484	 -0.035	 -0.015
 37.492	 -0.075	 -0.005
 37.500	 -0.125	  0.005
 37.508	 -0.155	  0.055
 37.516	 -0.155	  0.015
 37.523	 -0.165	  0.005
 37.531	 -0.215	  0.015
 37.539	 -0.225	  0.005
 37.547	 -0.225	  0.015
 37.555	 -0.185	  0.025
 37.562	 -0.175	  0.015
 37.570	 -0.165	 -0.015
 37.578	 -0.375	  0.215
 37.586	 -0.845	  0.065
 37.594	 -0.365	 -0.365
 37.602	  1.295	 -0.405
 37.609	  2.605	 -0.015
 37.617	  2.825	  0.615
 37.625	  2.485	  0.595
 37.633	  0.915	 -0.705
 37.641	 -0.265	 -0.605
 37.648	 -0.315	 -0.145
 37.656	 -0.275	 -0.005
 37.664	 -0.325	 -0.025
 37.672	 -0.345	 -0.045
 37.680	 -0.385	 -0.035
 37.688	 -0.345	 -0.055
 37.695	 -0.335	 -0.055
 37.703	 -0.305	 -0.055
 37.711	 -0.295	 -0.065
 37.719	 -0.285	 -0.085
 37.727	 -0.275	 -0.095
 37.734	 -0.255	 -0.075
 37.742	 -0.225	 -0.105
 37.750	 -0.205	 -0.095
 37.758	 -0.185	 -0.125
 37.766	 -0.165	 -0.125
 37.773	 -0.135	 -0.145
 37.781	 -0.145	 -0.205
 37.789	 -0.115	 -0.225
 37.797	 -0.115	 -0.235
 37.805	 -0.155	 -0.265
 37.812	 -0.125	 -0.305
 37.820	 -0.145	 -0.265
 37.828	 -0.205	 -0.275
 37.836	 -0.185	 -0.265
 37.844	 -0.165	 -0.225
 37.852	 -0.165	 -0.225
 37.859	 -0.125	 -0.135
 37.867	 -0.125	 -0.095
 37.875	 -0.095	 -0.085
 37.883	 -0.095	 -0.045
 37.891	 -0.105	  0.005
 37.898	 -0.115	  0.025
 37.906	 -0.145	 -0.005
 37.914	 -0.125	  0.005
 37.922	 -0.125	  0.025
 37.930	 -0.125	  0.045
 37.938	 -0.115	  0.005
 37.945	 -0.125	 -0.005
 37.953	 -0.125	  0.015
 37.961	 -0.115	  0.015
 37.969	 -0.115	  0.005
 37.977	 -0.125	  0.015
 37.984	 -0.105	  0.015
 37.992	 -0.095	  0.015
 38.000	 -0.105	 -0.005
 38.008	 -0.105	 -0.005
 38.016	 -0.095	  0.005
 38.023	 -0.105	  0.005
 38.031	 -0.115	 -0.005
 38.039	 -0.105	 -0.025
 38.047	 -0.105	 -0.005
 38.055	 -0.145	 -0.005
 38.062	 -0.125	 -0.025
 38.070	 -0.105	  0.005
 38.078	 -0.075	  0.035
 38.086	 -0.055	  0.035
 38.094	 -0.055	  0.035
 38.102	 -0.045	  0.075
 38.109	  0.045	  0.045
 38.117	  0.035	 -0.015
 38.125	 -0.025	 -0.075
 38.133	 -0.055	 -0.045
 38.141	 -0.075	 -0.025
 38.148	 -0.075	  0.015
 38.156	 -0.085	  0.025
 38.164	 -0.125	 -0.015
 38.172	 -0.175	 -0.015
 38.180	 -0.185	 -0.045
 38.188	 -0.175	 -0.005
 38.195	 -0.185	 -0.025
 38.203	 -0.165	 -0.015
 38.211	 -0.135	  0.015
 38.219	 -0.455	  0.195
 38.227	 -0.725	  0.025
 38.234	 -0.235	 -0.435
 38.242	  1.375	 -0.445
 38.250	  2.675	 -0.055
 38.258	  2.815	  0.725
 38.266	  2.175	  0.175
 38.273	  0.555	 -0.785
 38.281	 -0.275	 -0.485
 38.289	 -0.265	 -0.065
 38.297	 -0.265	  0.015
 38.305	 -0.285	 -0.015
 38.312	 -0.315	 -0.025
 38.320	 -0.335	 -0.035
 38.328	 -0.325	 -0.025
 38.336	 -0.325	 -0.035
 38.344	 -0.315	 -0.045
 38.352	 -0.265	 -0.055
 38.359	 -0.255	 -0.055
 38.367	 -0.235	 -0.065
 38.375	 -0.215	 -0.085
 38.383	 -0.215	 -0.095
 38.391	 -0.185	 -0.085
 38.398	 -0.155	 -0.095
 38.406	 -0.125	 -0.145
 38.414	 -0.125	 -0.155
 38.422	 -0.115	 -0.165
 38.430	 -0.095	 -0.175
 38.438	 -0.105	 -0.215
 38.445	 -0.085	 -0.215
 38.453	 -0.135	 -0.265
 38.461	 -0.125	 -0.275
 38.469	 -0.135	 -0.265
 38.477	 -0.165	 -0.225
 38.484	 -0.155	 -0.215
 38.492	 -0.155	 -0.195
 38.500	 -0.105	 -0.145
 38.508	 -0.115	 -0.085
 38.516	 -0.095	 -0.035
 38.523	 -0.085	 -0.015
 38.531	 -0.135	  0.005
 38.539	 -0.145	  0.035
 38.547	 -0.125	  0.025
 38.555	 -0.135	  0.015
 38.562	 -0.155	  0.005
 38.570	 -0.135	  0.025
 38.578	 -0.115	  0.055
 38.586	 -0.105	  0.005
 38.594	 -0.125	  0.005
 38.602	 -0.115	  0.015
 38.609	 -0.115	  0.035
 38.617	 -0.125	  0.025
 38.625	 -0.115	  0.025
 38.633	 -0.105	 -0.015
 38.641	 -0.105	  0.015
 38.648	 -0.095	  0.015
 38.656	 -0.115	  0.035
 38.664	 -0.105	  0.025
 38.672	 -0.115	 -0.005
 38.680	 -0.125	 -0.005
 38.688	 -0.125	  0.015
 38.695	 -0.125	  0.015
 38.703	 -0.115	  0.015
 38.711	 -0.125	  0.005
 38.719	 -0.135	 -0.025
 38.727	 -0.105	  0.005
 38.734	 -0.045	  0.065
 38.742	 -0.045	  0.085
 38.750	 -0.045	  0.065
 38.758	  0.035	  0.055
 38.766	  0.065	 -0.035
 38.773	 -0.005	 -0.045
 38.781	 -0.045	 -0.015
 38.789	 -0.075	 -0.025
 38.797	 -0.045	  0.015
 38.805	 -0.085	  0.005
 38.812	 -0.135	  0.005
 38.820	 -0.165	 -0.025
 38.828	 -0.175	 -0.025
 38.836	 -0.155	 -0.015
 38.844	 -0.175	 -0.015
 38.852	 -0.145	  0.015
 38.859	 -0.115	  0.005
 38.867	 -0.145	  0.095
 38.875	 -0.625	  0.105
 38.883	 -0.645	 -0.195
 38.891	  0.465	 -0.725
 38.898	  2.045	 -0.245
 38.906	  2.655	  0.345
 38.914	  2.455	  0.865
 38.922	  1.465	 -0.355
 38.930	  0.105	 -0.755
 38.938	 -0.255	 -0.295
 38.945	 -0.235	 -0.045
 38.953	 -0.245	 -0.055
 38.961	 -0.305	 -0.075
 38.969	 -0.295	 -0.085
 38.977	 -0.335	 -0.085
 38.984	 -0.315	 -0.085
 38.992	 -0.235	 -0.085
 39.000	 -0.285	 -0.115
 39.008	 -0.255	 -0.085
 39.016	 -0.275	 -0.125
 39.023	 -0.215	 -0.125
 39.031	 -0.185	 -0.155
 39.039	 -0.185	 -0.175
 39.047	 -0.135	 -0.175
 39.055	 -0.155	 -0.185
 39.062	 -0.125	 -0.205
 39.070	 -0.165	 -0.235
 39.078	 -0.095	 -0.275
 39.086	 -0.065	 -0.305
 39.094	 -0.085	 -0.335
 39.102	 -0.065	 -0.325
 39.109	 -0.125	 -0.325
 39.117	 -0.175	 -0.365
 39.125	 -0.175	 -0.355
 39.133	 -0.145	 -0.305
 39.141	 -0.145	 -0.245
 39.148	 -0.125	 -0.225
 39.156	 -0.125	 -0.155
 39.164	 -0.125	 -0.125
 39.172	 -0.115	 -0.095
 39.180	 -0.105	 -0.055
 39.188	 -0.145	 -0.055
 39.195	 -0.145	 -0.035
 39.203	 -0.135	 -0.015
 39.211	 -0.165	 -0.045
 39.219	 -0.205	 -0.025
 39.227	 -0.115	 -0.005
 39.234	 -0.145	 -0.025
 39.242	 -0.175	 -0.035
 39.250	 -0.155	 -0.035
 39.258	 -0.135	 -0.015
 39.266	 -0.155	 -0.015
 39.273	 -0.165	 -0.015
 39.281	 -0.165	 -0.065
 39.289	 -0.145	 -0.035
 39.297	 -0.145	 -0.005
 39.305	 -0.155	 -0.035
 39.312	 -0.165	 -0.045
 39.320	 -0.165	 -0.045
 39.328	 -0.105	 -0.015
 39.336	 -0.155	 -0.025
 39.344	 -0.155	 -0.055
 39.352	 -0.165	 -0.055
 39.359	 -0.145	 -0.025
 39.367	 -0.185	 -0.025
 39.375	 -0.185	 -0.045
 39.383	 -0.135	 -0.045
 39.391	 -0.085	  0.015
 39.398	 -0.075	  0.045
 39.406	 -0.085	  0.035
 39.414	  0.005	 -0.035
 39.422	  0.015	 -0.065
 39.430	 -0.075	 -0.095
 39.438	 -0.105	 -0.065
 39.445	 -0.085	 -0.065
 39.453	 -0.155	  0.005
 39.461	 -0.125	 -0.055
 39.469	 -0.155	 -0.065
 39.477	 -0.245	 -0.055
 39.484	 -0.185	 -0.035
 39.492	 -0.195	 -0.065
 39.500	 -0.265	 -0.045
 39.508	 -0.175	 -0.065
 39.516	 -0.175	 -0.055
 39.523	 -0.345	  0.145
 39.531	 -0.695	 -0.025
 39.539	 -0.495	 -0.425
 39.547	  0.825	 -0.675
 39.555	  2.325	 -0.135
 39.562	  2.695	  0.585
 39.570	  2.305	  0.765
 39.578	  0.855	 -0.615
 39.586	 -0.305	 -0.635
 39.594	 -0.335	 -0.245
 39.602	 -0.345	 -0.095
 39.609	 -0.305	 -0.075
 39.617	 -0.325	 -0.125
 39.625	 -0.345	 -0.145
 39.633	 -0.375	 -0.125
 39.641	 -0.355	 -0.125
 39.648	 -0.325	 -0.115
 39.656	 -0.335	 -0.145
 39.664	 -0.305	 -0.145
 39.672	 -0.255	 -0.145
 39.680	 -0.255	 -0.165
 39.688	 -0.245	 -0.195
 39.695	 -0.245	 -0.195
 39.703	 -0.225	 -0.225
 39.711	 -0.195	 -0.265
 39.719	 -0.185	 -0.295
 39.727	 -0.225	 -0.315
 39.734	 -0.175	 -0.325
 39.742	 -0.105	 -0.335
 39.750	 -0.155	 -0.405
 39.758	 -0.165	 -0.415
 39.766	 -0.165	 -0.405
 39.773	 -0.185	 -0.395
 39.781	 -0.195	 -0.375
 39.789	 -0.175	 -0.325
 39.797	 -0.145	 -0.245
 39.805	 -0.135	 -0.215
 39.812	 -0.195	 -0.195
 39.820	 -0.115	 -0.145
 39.828	 -0.085	 -0.055
 39.836	 -0.115	 -0.055
 39.844	 -0.165	 -0.035
 39.852	 -0.155	 -0.015
 39.859	 -0.175	 -0.045
 39.867	 -0.195	 -0.035
 39.875	 -0.155	 -0.025
 39.883	 -0.165	 -0.015
 39.891	 -0.195	 -0.005
 39.898	 -0.175	 -0.015
 39.906	 -0.215	 -0.035
 39.914	 -0.195	 -0.035
 39.922	 -0.185	 -0.015
 39.930	 -0.165	 -0.035
 39.938	 -0.145	 -0.035
 39.945	 -0.175	 -0.035
 39.953	 -0.145	 -0.015
 39.961	 -0.205	 -0.025
 39.969	 -0.225	 -0.035
 39.977	 -0.165	 -0.025
 39.984	 -0.195	 -0.015
 39.992	 -0.185	 -0.025
 40.000	 -0.175	 -0.035
 40.008	 -0.155	 -0.035
 40.016	 -0.155	 -0.025
 40.023	 -0.205	 -0.015
 40.031	 -0.125	  0.015
 40.039	 -0.095	  0.035
 40.047	 -0.135	  0.035
 40.055	 -0.045	 -0.005
 40.062	 -0.005	 -0.055
 40.070	 -0.085	 -0.085
 40.078	 -0.135	 -0.055
 40.086	 -0.125	 -0.035
 40.094	 -0.145	 -0.045
 40.102	 -0.165	 -0.035
 40.109	 -0.205	 -0.045
 40.117	 -0.225	 -0.055
 40.125	 -0.235	 -0.065
 40.133	 -0.265	 -0.065
 40.141	 -0.215	 -0.015
 40.148	 -0.185	 -0.035
 40.156	 -0.205	 -0.035
 40.164	 -0.355	  0.125
 40.172	 -0.875	  0.015
 40.180	 -0.505	 -0.315
 40.188	  0.895	 -0.575
 40.195	  2.465	 -0.105
 40.203	  2.695	  0.525
 40.211	  2.415	  0.765
 40.219	  0.945	 -0.535
 40.227	 -0.285	 -0.685
 40.234	 -0.385	 -0.255
 40.242	 -0.405	 -0.085
 40.250	 -0.305	 -0.095
 40.258	 -0.295	 -0.095
 40.266	 -0.345	 -0.105
 40.273	 -0.335	 -0.085
 40.281	 -0.365	 -0.115
 40.289	 -0.405	 -0.115
 40.297	 -0.265	 -0.125
 40.305	 -0.295	 -0.145
 40.312	 -0.305	 -0.155
 40.320	 -0.255	 -0.155
 40.328	 -0.255	 -0.115
 40.336	 -0.255	 -0.195
 40.344	 -0.235	 -0.215
 40.352	 -0.215	 -0.215
 40.359	 -0.235	 -0.255
 40.367	 -0.185	 -0.285
 40.375	 -0.145	 -0.305
 40.383	 -0.155	 -0.315
 40.391	 -0.155	 -0.325
 40.398	 -0.185	 -0.345
 40.406	 -0.215	 -0.355
 40.414	 -0.205	 -0.335
 40.422	 -0.195	 -0.305
 40.430	 -0.205	 -0.285
 40.438	 -0.175	 -0.225
 40.445	 -0.135	 -0.195
 40.453	 -0.125	 -0.135
 40.461	 -0.135	 -0.095
 40.469	 -0.175	 -0.055
 40.477	 -0.155	 -0.045
 40.484	 -0.125	 -0.025
 40.492	 -0.155	 -0.005
 40.500	 -0.195	  0.005
 40.508	 -0.175	 -0.015
 40.516	 -0.175	  0.005
 40.523	 -0.165	 -0.005
 40.531	 -0.175	 -0.025
 40.539	 -0.175	 -0.005
 40.547	 -0.155	 -0.025
 40.555	 -0.175	 -0.025
 40.562	 -0.185	 -0.015
 40.570	 -0.205	 -0.025
 40.578	 -0.155	 -0.025
 40.586	 -0.125	 -0.005
 40.594	 -0.175	 -0.025
 40.602	 -0.205	 -0.015
 40.609	 -0.115	 -0.005
 40.617	 -0.165	 -0.035
 40.625	 -0.215	 -0.045
 40.633	 -0.125	 -0.005
 40.641	 -0.155	 -0.005
 40.648	 -0.195	 -0.025
 40.656	 -0.135	  0.015
 40.664	 -0.095	  0.025
 40.672	 -0.115	  0.045
 40.680	 -0.075	  0.045
 40.688	 -0.055	  0.045
 40.695	  0.055	 -0.015
 40.703	 -0.045	 -0.065
 40.711	 -0.095	 -0.075
 40.719	 -0.135	 -0.055
 40.727	 -0.105	  0.015
 40.734	 -0.115	  0.015
 40.742	 -0.165	 -0.035
 40.750	 -0.205	 -0.055
 40.758	 -0.195	 -0.015
 40.766	 -0.235	 -0.005
 40.773	 -0.165	 -0.025
 40.781	 -0.165	 -0.045
 40.789	 -0.145	 -0.025
 40.797	 -0.205	  0.135
 40.805	 -0.745	  0.175
 40.812	 -0.555	 -0.145
 40.820	  0.755	 -0.535
 40.828	  2.285	 -0.235
 40.836	  2.865	  0.165
 40.844	  2.675	  0.615
 40.852	  1.515	 -0.535
 40.859	  0.025	 -0.805
 40.867	 -0.355	 -0.265
 40.875	 -0.255	 -0.045
 40.883	 -0.245	 -0.005
 40.891	 -0.305	 -0.025
 40.898	 -0.335	 -0.025
 40.906	 -0.345	 -0.055
 40.914	 -0.335	 -0.035
 40.922	 -0.305	 -0.045
 40.930	 -0.275	 -0.035
 40.938	 -0.265	 -0.055
 40.945	 -0.275	 -0.085
 40.953	 -0.235	 -0.065
 40.961	 -0.235	 -0.065
 40.969	 -0.205	 -0.065
 40.977	 -0.195	 -0.105
 40.984	 -0.165	 -0.115
 40.992	 -0.135	 -0.125
 41.000	 -0.155	 -0.145
 41.008	 -0.145	 -0.155
 41.016	 -0.105	 -0.175
 41.023	 -0.125	 -0.255
 41.031	 -0.125	 -0.265
 41.039	 -0.115	 -0.215
 41.047	 -0.135	 -0.245
 41.055	 -0.185	 -0.235
 41.062	 -0.195	 -0.235
 41.070	 -0.205	 -0.205
 41.078	 -0.145	 -0.135
 41.086	 -0.115	 -0.095
 41.094	 -0.135	 -0.075
 41.102	 -0.105	 -0.005
 41.109	 -0.115	 -0.015
 41.117	 -0.095	  0.015
 41.125	 -0.115	  0.055
 41.133	 -0.135	  0.055
 41.141	 -0.145	  0.045
 41.148	 -0.165	  0.025
 41.156	 -0.185	  0.035
 41.164	 -0.135	  0.015
 41.172	 -0.125	  0.055
 41.180	 -0.145	  0.055
 41.188	 -0.145	  0.035
 41.195	 -0.135	  0.045
 41.203	 -0.105	  0.025
 41.211	 -0.155	  0.025
 41.219	 -0.145	  0.045
 41.227	 -0.125	  0.025
 41.234	 -0.115	  0.045
 41.242	 -0.115	  0.025
 41.250	 -0.135	  0.015
 41.258	 -0.145	  0.005
 41.266	 -0.135	  0.055
 41.273	 -0.105	  0.065
 41.281	 -0.125	  0.015
 41.289	 -0.125	  0.005
 41.297	 -0.135	  0.025
 41.305	 -0.095	  0.025
 41.312	 -0.045	  0.095
 41.320	 -0.075	  0.065
 41.328	 -0.035	  0.085
 41.336	  0.045	  0.065
 41.344	  0.025	  0.005
 41.352	 -0.035	 -0.055
 41.359	 -0.085	 -0.005
 41.367	 -0.115	 -0.005
 41.375	 -0.115	  0.045
 41.383	 -0.145	  0.025
 41.391	 -0.135	  0.025
 41.398	 -0.145	 -0.005
 41.406	 -0.165	  0.015
 41.414	 -0.195	 -0.015
 41.422	 -0.195	 -0.005
 41.430	 -0.185	  0.045
 41.438	 -0.125	  0.035
 41.445	 -0.365	  0.205
 41.453	 -0.765	  0.075
 41.461	 -0.385	 -0.345
 41.469	  1.205	 -0.505
 41.477	  2.685	 -0.115
 41.484	  2.875	  0.775
 41.492	  2.085	  0.125
 41.500	  0.265	 -0.835
 41.508	 -0.305	 -0.375
 41.516	 -0.255	 -0.035
 41.523	 -0.245	 -0.005
 41.531	 -0.335	 -0.005
 41.539	 -0.345	 -0.015
 41.547	 -0.335	 -0.045
 41.555	 -0.325	 -0.025
 41.562	 -0.325	 -0.045
 41.570	 -0.305	 -0.075
 41.578	 -0.235	 -0.065
 41.586	 -0.295	 -0.065
 41.594	 -0.245	 -0.065
 41.602	 -0.235	 -0.065
 41.609	 -0.185	 -0.105
 41.617	 -0.175	 -0.095
 41.625	 -0.185	 -0.135
 41.633	 -0.115	 -0.145
 41.641	 -0.145	 -0.155
 41.648	 -0.085	 -0.175
 41.656	 -0.095	 -0.235
 41.664	 -0.075	 -0.245
 41.672	 -0.115	 -0.225
 41.680	 -0.115	 -0.305
 41.688	 -0.095	 -0.285
 41.695	 -0.165	 -0.285
 41.703	 -0.135	 -0.245
 41.711	 -0.155	 -0.245
 41.719	 -0.115	 -0.195
 41.727	 -0.105	 -0.115
 41.734	 -0.115	 -0.085
 41.742	 -0.105	 -0.045
 41.750	 -0.075	 -0.015
 41.758	 -0.125	  0.015
 41.766	 -0.145	  0.015
 41.773	 -0.125	  0.035
 41.781	 -0.175	  0.025
 41.789	 -0.125	  0.045
 41.797	 -0.135	  0.055
 41.805	 -0.135	 -0.005
 41.812	 -0.135	  0.045
 41.820	 -0.135	  0.045
 41.828	 -0.155	  0.035
 41.836	 -0.115	  0.035
 41.844	 -0.155	  0.005
 41.852	 -0.135	  0.005
 41.859	 -0.155	  0.055
 41.867	 -0.135	  0.025
 41.875	 -0.125	  0.015
 41.883	 -0.125	  0.005
 41.891	 -0.115	  0.035
 41.898	 -0.105	  0.055
 41.906	 -0.125	  0.015
 41.914	 -0.165	  0.005
 41.922	 -0.115	  0.045
 41.930	 -0.005	  0.025
 41.938	 -0.105	  0.055
 41.945	 -0.125	  0.065
 41.953	 -0.095	  0.085
 41.961	  0.035	  0.045
 41.969	  0.025	 -0.005
 41.977	 -0.045	  0.015
 41.984	 -0.105	 -0.005
 41.992	 -0.105	 -0.005
 42.000	 -0.115	  0.015
 42.008	 -0.135	  0.035
 42.016	 -0.155	  0.055
 42.023	 -0.225	  0.025
 42.031	 -0.205	  0.025
 42.039	 -0.175	  0.005
 42.047	 -0.195	  0.035
 42.055	 -0.205	  0.025
 42.062	 -0.165	  0.015
 42.070	 -0.215	  0.065
 42.078	 -0.815	  0.145
 42.086	 -0.715	 -0.045
 42.094	  0.375	 -0.415
 42.102	  2.055	 -0.155
 42.109	  2.805	  0.185
 42.117	  2.555	  0.585
 42.125	  1.615	  0.025
 42.133	  0.135	 -0.435
 42.141	 -0.335	 -0.225
 42.148	 -0.295	 -0.055
 42.156	 -0.355	 -0.025
 42.164	 -0.325	 -0.005
 42.172	 -0.365	 -0.005
 42.180	 -0.345	 -0.005
 42.188	 -0.375	 -0.035
 42.195	 -0.335	 -0.045
 42.203	 -0.315	 -0.025
 42.211	 -0.315	 -0.035
 42.219	 -0.315	 -0.045
 42.227	 -0.315	 -0.075
 42.234	 -0.225	 -0.075
 42.242	 -0.245	 -0.065
 42.250	 -0.215	 -0.105
 42.258	 -0.185	 -0.125
 42.266	 -0.165	 -0.125
 42.273	 -0.165	 -0.165
 42.281	 -0.155	 -0.175
 42.289	 -0.155	 -0.225
 42.297	 -0.135	 -0.235
 42.305	 -0.145	 -0.245
 42.312	 -0.215	 -0.275
 42.320	 -0.185	 -0.275
 42.328	 -0.195	 -0.255
 42.336	 -0.165	 -0.235
 42.344	 -0.175	 -0.215
 42.352	 -0.155	 -0.135
 42.359	 -0.165	 -0.105
 42.367	 -0.155	 -0.075
 42.375	 -0.115	 -0.045
 42.383	 -0.165	  0.005
 42.391	 -0.155	  0.005
 42.398	 -0.165	  0.005
 42.406	 -0.205	  0.005
 42.414	 -0.165	  0.025
 42.422	 -0.165	  0.035
 42.430	 -0.195	  0.015
 42.438	 -0.205	  0.005
 42.445	 -0.165	 -0.005
 42.453	 -0.185	 -0.005
 42.461	 -0.165	  0.015
 42.469	 -0.165	  0.035
 42.477	 -0.135	 -0.005
 42.484	 -0.125	  0.035
 42.492	 -0.175	  0.035
 42.500	 -0.105	 -0.015
 42.508	 -0.155	 -0.015
 42.516	 -0.185	  0.025
 42.523	 -0.185	  0.015
 42.531	 -0.145	  0.005
 42.539	 -0.175	  0.035
 42.547	 -0.135	  0.015
 42.555	 -0.105	 -0.015
 42.562	 -0.105	  0.025
 42.570	 -0.105	  0.025
 42.578	 -0.085	  0.065
 42.586	  0.055	 -0.005
 42.594	 -0.005	 -0.075
 42.602	 -0.125	 -0.075
 42.609	 -0.045	 -0.025
 42.617	 -0.185	 -0.025
 42.625	 -0.105	  0.005
 42.633	 -0.105	 -0.025
 42.641	 -0.175	  0.005
 42.648	 -0.175	 -0.025
 42.656	 -0.225	 -0.035
 42.664	 -0.245	 -0.055
 42.672	 -0.205	 -0.045
 42.680	 -0.175	 -0.045
 42.688	 -0.185	 -0.015
 42.695	 -0.245	  0.105
 42.703	 -0.855	  0.055
 42.711	 -0.645	 -0.225
 42.719	  0.655	 -0.745
 42.727	  2.345	 -0.085
 42.734	  2.725	  0.605
 42.742	  2.485	  1.015
 42.750	  1.195	 -0.295
 42.758	 -0.165	 -0.775
 42.766	 -0.355	 -0.325
 42.773	 -0.265	 -0.085
 42.781	 -0.315	 -0.115
 42.789	 -0.345	 -0.115
 42.797	 -0.425	 -0.105
 42.805	 -0.305	 -0.115
 42.812	 -0.315	 -0.115
 42.820	 -0.305	 -0.105
 42.828	 -0.295	 -0.155
 42.836	 -0.315	 -0.175
 42.844	 -0.265	 -0.175
 42.852	 -0.275	 -0.155
 42.859	 -0.265	 -0.185
 42.867	 -0.235	 -0.215
 42.875	 -0.225	 -0.235
 42.883	 -0.185	 -0.275
 42.891	 -0.175	 -0.285
 42.898	 -0.165	 -0.305
 42.906	 -0.165	 -0.335
 42.914	 -0.185	 -0.365
 42.922	 -0.155	 -0.365
 42.930	 -0.175	 -0.395
 42.938	 -0.255	 -0.385
 42.945	 -0.195	 -0.395
 42.953	 -0.165	 -0.355
 42.961	 -0.145	 -0.305
 42.969	 -0.135	 -0.255
 42.977	 -0.165	 -0.215
 42.984	 -0.095	 -0.145
 42.992	 -0.125	 -0.115
 43.000	 -0.165	 -0.085
 43.008	 -0.115	 -0.035
 43.016	 -0.115	 -0.045
 43.023	 -0.155	 -0.045
 43.031	 -0.175	 -0.035
 43.039	 -0.175	 -0.015
 43.047	 -0.225	 -0.015
 43.055	 -0.145	 -0.045
 43.062	 -0.155	 -0.065
 43.070	 -0.175	 -0.025
 43.078	 -0.165	 -0.025
 43.086	 -0.185	 -0.045
 43.094	 -0.145	 -0.035
 43.102	 -0.145	 -0.025
 43.109	 -0.165	 -0.025
 43.117	 -0.165	 -0.035
 43.125	 -0.185	 -0.045
 43.133	 -0.155	 -0.035
 43.141	 -0.155	 -0.045
 43.148	 -0.155	 -0.035
 43.156	 -0.175	 -0.055
 43.164	 -0.145	 -0.035
 43.172	 -0.195	 -0.035
 43.180	 -0.185	 -0.025
 43.188	 -0.185	 -0.025
 43.195	 -0.145	 -0.025
 43.203	 -0.125	  0.035
 43.211	 -0.145	  0.005
 43.219	 -0.065	  0.025
 43.227	  0.025	 -0.025
 43.234	  0.005	 -0.075
 43.242	 -0.065	 -0.085
 43.250	 -0.165	 -0.055
 43.258	 -0.155	 -0.075
 43.266	 -0.155	 -0.065
 43.273	 -0.155	 -0.045
 43.281	 -0.185	 -0.065
 43.289	 -0.205	 -0.045
 43.297	 -0.215	 -0.045
 43.305	 -0.235	 -0.055
 43.312	 -0.245	 -0.065
 43.320	 -0.205	 -0.065
 43.328	 -0.165	 -0.065
 43.336	 -0.395	  0.155
 43.344	 -0.825	  0.065
 43.352	 -0.275	 -0.245
 43.359	  1.135	 -0.525
 43.367	  2.565	 -0.185
 43.375	  2.785	  0.255
 43.383	  2.465	  0.585
 43.391	  0.755	 -0.695
 43.398	 -0.375	 -0.705
 43.406	 -0.335	 -0.225
 43.414	 -0.345	 -0.055
 43.422	 -0.365	 -0.085
 43.430	 -0.395	 -0.095
 43.438	 -0.355	 -0.105
 43.445	 -0.345	 -0.085
 43.453	 -0.355	 -0.115
 43.461	 -0.315	 -0.105
 43.469	 -0.345	 -0.115
 43.477	 -0.295	 -0.125
 43.484	 -0.285	 -0.135
 43.492	 -0.275	 -0.165
 43.500	 -0.245	 -0.175
 43.508	 -0.235	 -0.185
 43.516	 -0.245	 -0.175
 43.523	 -0.215	 -0.215
 43.531	 -0.195	 -0.245
 43.539	 -0.235	 -0.245
 43.547	 -0.145	 -0.275
 43.555	 -0.125	 -0.285
 43.562	 -0.175	 -0.295
 43.570	 -0.155	 -0.305
 43.578	 -0.155	 -0.295
 43.586	 -0.205	 -0.305
 43.594	 -0.195	 -0.285
 43.602	 -0.155	 -0.205
 43.609	 -0.215	 -0.195
 43.617	 -0.175	 -0.175
 43.625	 -0.145	 -0.145
 43.633	 -0.065	 -0.105
 43.641	 -0.205	 -0.085
 43.648	 -0.175	 -0.075
 43.656	 -0.125	 -0.055
 43.664	 -0.155	 -0.045
 43.672	 -0.155	 -0.015
 43.680	 -0.195	 -0.045
 43.688	 -0.155	 -0.035
 43.695	 -0.185	 -0.045
 43.703	 -0.185	 -0.035
 43.711	 -0.195	 -0.055
 43.719	 -0.205	 -0.035
 43.727	 -0.215	 -0.055
 43.734	 -0.195	 -0.055
 43.742	 -0.105	 -0.045
 43.750	 -0.155	 -0.055
 43.758	 -0.185	 -0.085
 43.766	 -0.145	 -0.055
 43.773	 -0.195	 -0.015
 43.781	 -0.155	 -0.055
 43.789	 -0.215	 -0.065
 43.797	 -0.175	 -0.115
 43.805	 -0.105	 -0.075
 43.812	 -0.175	 -0.035
 43.820	 -0.205	 -0.055
 43.828	 -0.135	 -0.045
 43.836	 -0.105	 -0.005
 43.844	 -0.145	  0.005
 43.852	 -0.155	  0.015
 43.859	 -0.035	 -0.025
 43.867	 -0.035	 -0.055
 43.875	 -0.075	 -0.095
 43.883	 -0.085	 -0.095
 43.891	 -0.115	 -0.085
 43.898	 -0.195	 -0.075
 43.906	 -0.185	 -0.065
 43.914	 -0.175	 -0.065
 43.922	 -0.215	 -0.065
 43.930	 -0.225	 -0.065
 43.938	 -0.225	 -0.095
 43.945	 -0.225	 -0.085
 43.953	 -0.205	 -0.045
 43.961	 -0.155	 -0.095
 43.969	 -0.365	  0.095
 43.977	 -0.865	  0.165
 43.984	 -0.435	 -0.085
 43.992	  1.115	 -0.455
 44.000	  2.645	 -0.285
 44.008	  2.955	  0.055
 44.016	  2.595	  0.315
 44.023	  0.965	 -0.745
 44.031	 -0.345	 -0.745
 44.039	 -0.295	 -0.145
 44.047	 -0.275	 -0.005
 44.055	 -0.345	 -0.025
 44.062	 -0.415	 -0.065
 44.070	 -0.375	 -0.055
 44.078	 -0.325	 -0.035
 44.086	 -0.335	 -0.055
 44.094	 -0.325	 -0.075
 44.102	 -0.355	 -0.075
 44.109	 -0.325	 -0.095
 44.117	 -0.275	 -0.085
 44.125	 -0.245	 -0.085
 44.133	 -0.265	 -0.085
 44.141	 -0.245	 -0.115
 44.148	 -0.205	 -0.135
 44.156	 -0.185	 -0.155
 44.164	 -0.155	 -0.175
 44.172	 -0.115	 -0.165
 44.180	 -0.135	 -0.195
 44.188	 -0.145	 -0.215
 44.195	 -0.155	 -0.205
 44.203	 -0.095	 -0.245
 44.211	 -0.105	 -0.245
 44.219	 -0.155	 -0.235
 44.227	 -0.165	 -0.225
 44.234	 -0.155	 -0.185
 44.242	 -0.155	 -0.165
 44.250	 -0.145	 -0.125
 44.258	 -0.135	 -0.085
 44.266	 -0.095	 -0.065
 44.273	 -0.095	 -0.035
 44.281	 -0.135	 -0.055
 44.289	 -0.145	 -0.025
 44.297	 -0.135	 -0.005
 44.305	 -0.175	 -0.005
 44.312	 -0.175	 -0.025
 44.320	 -0.175	 -0.015
 44.328	 -0.185	 -0.015
 44.336	 -0.155	 -0.025
 44.344	 -0.165	  0.005
 44.352	 -0.135	  0.005
 44.359	 -0.175	 -0.035
 44.367	 -0.125	 -0.025
 44.375	 -0.135	 -0.025
 44.383	 -0.145	 -0.015
 44.391	 -0.145	 -0.015
 44.398	 -0.155	 -0.035
 44.406	 -0.155	 -0.045
 44.414	 -0.175	 -0.035
 44.422	 -0.075	 -0.045
 44.430	 -0.155	  0.005
 44.438	 -0.155	 -0.015
 44.445	 -0.105	 -0.025
 44.453	 -0.125	 -0.025
 44.461	 -0.075	 -0.005
 44.469	 -0.055	  0.025
 44.477	 -0.055	  0.045
 44.484	 -0.055	  0.065
 44.492	  0.015	 -0.015
 44.500	  0.005	 -0.045
 44.508	 -0.095	 -0.065
 44.516	 -0.095	 -0.065
 44.523	 -0.155	 -0.055
 44.531	 -0.125	 -0.025
 44.539	 -0.125	 -0.025
 44.547	 -0.155	 -0.015
 44.555	 -0.215	 -0.035
 44.562	 -0.195	 -0.055
 44.570	 -0.165	 -0.055
 44.578	 -0.195	 -0.045
 44.586	 -0.125	 -0.045
 44.594	 -0.115	 -0.035
 44.602	 -0.475	  0.195
 44.609	 -0.745	  0.175
 44.617	 -0.045	 -0.265
 44.625	  1.505	 -0.345
 44.633	  2.625	 -0.195
 44.641	  2.775	  0.325
 44.648	  2.315	  0.075
 44.656	  0.695	 -0.915
 44.664	 -0.205	 -0.525
 44.672	 -0.205	 -0.045
 44.680	 -0.255	 -0.005
 44.688	 -0.325	 -0.035
 44.695	 -0.325	 -0.035
 44.703	 -0.335	 -0.035
 44.711	 -0.315	 -0.035
 44.719	 -0.315	 -0.035
 44.727	 -0.305	 -0.065
 44.734	 -0.295	 -0.025
 44.742	 -0.265	 -0.065
 44.750	 -0.245	 -0.075
 44.758	 -0.215	 -0.065
 44.766	 -0.195	 -0.065
 44.773	 -0.165	 -0.085
 44.781	 -0.205	 -0.115
 44.789	 -0.115	 -0.115
 44.797	 -0.105	 -0.125
 44.805	 -0.125	 -0.135
 44.812	 -0.105	 -0.185
 44.820	 -0.085	 -0.205
 44.828	 -0.105	 -0.225
 44.836	 -0.145	 -0.215
 44.844	 -0.135	 -0.205
 44.852	 -0.185	 -0.175
 44.859	 -0.125	 -0.165
 44.867	 -0.185	 -0.165
 44.875	 -0.185	 -0.155
 44.883	 -0.145	 -0.095
 44.891	 -0.095	 -0.045
 44.898	 -0.095	 -0.015
 44.906	 -0.135	  0.015
 44.914	 -0.145	  0.005
 44.922	 -0.145	  0.075
 44.930	 -0.135	  0.045
 44.938	 -0.185	  0.005
 44.945	 -0.175	  0.025
 44.953	 -0.115	  0.045
 44.961	 -0.155	  0.035
 44.969	 -0.145	  0.055
 44.977	 -0.165	  0.035
 44.984	 -0.145	  0.025
 44.992	 -0.165	  0.045
 45.000	 -0.095	  0.035
 45.008	 -0.105	  0.025
 45.016	 -0.095	  0.025
 45.023	 -0.145	  0.045
 45.031	 -0.115	  0.035
 45.039	 -0.115	  0.025
 45.047	 -0.135	  0.005
 45.055	 -0.115	  0.025
 45.062	 -0.095	  0.035
 45.070	 -0.125	  0.025
 45.078	 -0.145	  0.015
 45.086	 -0.155	  0.025
 45.094	 -0.115	  0.015
 45.102	 -0.135	  0.005
 45.109	 -0.135	  0.025
 45.117	 -0.095	  0.035
 45.125	 -0.075	  0.035
 45.133	 -0.035	  0.045
 45.141	 -0.075	  0.085
 45.148	 -0.035	  0.065
 45.156	  0.055	 -0.005
 45.164	 -0.035	  0.015
 45.172	 -0.065	 -0.025
 45.180	 -0.105	 -0.025
 45.188	 -0.125	 -0.005
 45.195	 -0.115	  0.015
 45.203	 -0.095	  0.015
 45.211	 -0.185	  0.025
 45.219	 -0.205	 -0.015
 45.227	 -0.165	 -0.015
 45.234	 -0.155	  0.015
 45.242	 -0.205	  0.005
 45.250	 -0.135	  0.005
 45.258	 -0.185	  0.035
 45.266	 -0.645	  0.205
 45.273	 -0.655	  0.075
 45.281	  0.465	 -0.285
 45.289	  2.065	 -0.215
 45.297	  2.805	 -0.055
 45.305	  2.575	  0.425
 45.312	  1.375	 -0.135
 45.320	 -0.035	 -0.535
 45.328	 -0.245	 -0.195
 45.336	 -0.285	 -0.005
 45.344	 -0.275	  0.025
 45.352	 -0.285	  0.005
 45.359	 -0.345	  0.015
 45.367	 -0.335	  0.025
 45.375	 -0.295	  0.005
 45.383	 -0.305	 -0.015
 45.391	 -0.285	  0.015
 45.398	 -0.275	 -0.015
 45.406	 -0.265	 -0.015
 45.414	 -0.255	 -0.025
 45.422	 -0.185	 -0.015
 45.430	 -0.155	 -0.005
 45.438	 -0.155	 -0.045
 45.445	 -0.165	 -0.045
 45.453	 -0.095	 -0.055
 45.461	 -0.095	 -0.055
 45.469	 -0.115	 -0.085
 45.477	 -0.065	 -0.095
 45.484	 -0.075	 -0.105
 45.492	 -0.095	 -0.145
 45.500	 -0.095	 -0.145
 45.508	 -0.135	 -0.155
 45.516	 -0.145	 -0.145
 45.523	 -0.145	 -0.135
 45.531	 -0.155	 -0.115
 45.539	 -0.135	 -0.095
 45.547	 -0.115	 -0.045
 45.555	 -0.105	 -0.025
 45.562	 -0.095	 -0.025
 45.570	 -0.135	  0.005
 45.578	 -0.135	  0.025
 45.586	 -0.115	  0.045
 45.594	 -0.155	  0.005
 45.602	 -0.145	  0.045
 45.609	 -0.135	  0.035
 45.617	 -0.145	  0.025
 45.625	 -0.135	  0.025
 45.633	 -0.135	  0.035
 45.641	 -0.085	  0.035
 45.648	 -0.135	  0.025
 45.656	 -0.125	  0.005
 45.664	 -0.145	  0.035
 45.672	 -0.095	  0.035
 45.680	 -0.095	  0.025
 45.688	 -0.145	  0.025
 45.695	 -0.095	  0.035
 45.703	 -0.145	  0.005
 45.711	 -0.155	  0.015
 45.719	 -0.105	  0.025
 45.727	 -0.085	  0.025
 45.734	 -0.115	  0.015
 45.742	 -0.155	 -0.005
 45.750	 -0.145	 -0.005
 45.758	 -0.135	  0.015
 45.766	 -0.145	  0.015
 45.773	 -0.105	  0.015
 45.781	 -0.065	  0.045
 45.789	 -0.085	  0.055
 45.797	 -0.095	  0.075
 45.805	  0.005	  0.085
 45.812	  0.005	  0.025
 45.820	  0.025	 -0.015
 45.828	 -0.025	 -0.025
 45.836	 -0.045	 -0.015
 45.844	 -0.075	 -0.025
 45.852	 -0.085	  0.015
 45.859	 -0.115	  0.015
 45.867	 -0.145	  0.035
 45.875	 -0.185	 -0.005
 45.883	 -0.155	 -0.015
 45.891	 -0.195	 -0.005
 45.898	 -0.145	  0.025
 45.906	 -0.145	  0.025
 45.914	 -0.135	  0.005
 45.922	 -0.235	  0.175
 45.930	 -0.715	  0.155
 45.938	 -0.505	 -0.185
 45.945	  0.905	 -0.645
 45.953	  2.435	 -0.225
 45.961	  2.735	  0.315
 45.969	  2.365	  0.695
 45.977	  0.925	 -0.555
 45.984	 -0.175	 -0.685
 45.992	 -0.305	 -0.195
 46.000	 -0.235	  0.015
 46.008	 -0.265	 -0.005
 46.016	 -0.325	 -0.025
 46.023	 -0.295	 -0.015
 46.031	 -0.295	 -0.025
 46.039	 -0.285	 -0.035
 46.047	 -0.275	 -0.035
 46.055	 -0.265	 -0.065
 46.062	 -0.275	 -0.045
 46.070	 -0.245	 -0.035
 46.078	 -0.225	 -0.075
 46.086	 -0.205	 -0.095
 46.094	 -0.205	 -0.125
 46.102	 -0.135	 -0.095
 46.109	 -0.105	 -0.095
 46.117	 -0.055	 -0.135
 46.125	 -0.115	 -0.125
 46.133	 -0.065	 -0.215
 46.141	 -0.075	 -0.205
 46.148	 -0.075	 -0.245
 46.156	 -0.135	 -0.255
 46.164	 -0.045	 -0.245
 46.172	 -0.085	 -0.235
 46.180	 -0.105	 -0.265
 46.188	 -0.155	 -0.255
 46.195	 -0.095	 -0.185
 46.203	 -0.115	 -0.155
 46.211	 -0.105	 -0.115
 46.219	 -0.105	 -0.075
 46.227	 -0.075	 -0.045
 46.234	 -0.075	  0.015
 46.242	 -0.115	  0.025
 46.250	 -0.125	  0.035
 46.258	 -0.135	  0.025
 46.266	 -0.125	  0.045
 46.273	 -0.115	  0.055
 46.281	 -0.135	  0.025
 46.289	 -0.155	  0.045
 46.297	 -0.145	  0.015
 46.305	 -0.075	  0.035
 46.312	 -0.115	  0.045
 46.320	 -0.145	  0.025
 46.328	 -0.125	  0.015
 46.336	 -0.055	  0.035
 46.344	 -0.115	  0.015
 46.352	 -0.085	  0.045
 46.359	 -0.085	  0.035
 46.367	 -0.135	  0.035
 46.375	 -0.095	  0.005
 46.383	 -0.115	  0.015
 46.391	 -0.125	  0.025
 46.398	 -0.085	  0.015
 46.406	 -0.125	  0.045
 46.414	 -0.105	  0.005
 46.422	 -0.115	  0.005
 46.430	 -0.125	  0.025
 46.438	 -0.105	  0.025
 46.445	 -0.135	  0.015
 46.453	 -0.155	  0.015
 46.461	 -0.015	  0.045
 46.469	 -0.085	  0.065
 46.477	 -0.015	  0.045
 46.484	  0.045	  0.055
 46.492	  0.095	 -0.005
 46.500	 -0.015	 -0.045
 46.508	 -0.055	 -0.035
 46.516	 -0.045	 -0.005
 46.523	 -0.085	  0.015
 46.531	 -0.125	 -0.005
 46.539	 -0.095	 -0.015
 46.547	 -0.185	 -0.015
 46.555	 -0.145	 -0.025
 46.562	 -0.165	 -0.035
 46.570	 -0.205	 -0.005
 46.578	 -0.095	 -0.015
 46.586	 -0.095	 -0.005
 46.594	 -0.295	  0.125
 46.602	 -0.735	  0.095
 46.609	 -0.295	 -0.225
 46.617	  1.165	 -0.625
 46.625	  2.555	 -0.135
 46.633	  2.705	  0.465
 46.641	  2.405	  0.795
 46.648	  0.755	 -0.505
 46.656	 -0.295	 -0.715
 46.664	 -0.305	 -0.245
 46.672	 -0.255	 -0.045
 46.680	 -0.315	 -0.065
 46.688	 -0.305	 -0.075
 46.695	 -0.315	 -0.065
 46.703	 -0.305	 -0.065
 46.711	 -0.295	 -0.065
 46.719	 -0.285	 -0.095
 46.727	 -0.215	 -0.085
 46.734	 -0.235	 -0.065
 46.742	 -0.255	 -0.115
 46.750	 -0.235	 -0.135
 46.758	 -0.195	 -0.145
 46.766	 -0.165	 -0.125
 46.773	 -0.215	 -0.155
 46.781	 -0.175	 -0.185
 46.789	 -0.085	 -0.245
 46.797	 -0.095	 -0.245
 46.805	 -0.135	 -0.265
 46.812	 -0.105	 -0.285
 46.820	 -0.105	 -0.305
 46.828	 -0.085	 -0.315
 46.836	 -0.085	 -0.295
 46.844	 -0.155	 -0.325
 46.852	 -0.135	 -0.305
 46.859	 -0.135	 -0.255
 46.867	 -0.115	 -0.195
 46.875	 -0.095	 -0.205
 46.883	 -0.105	 -0.155
 46.891	 -0.115	 -0.085
 46.898	 -0.105	 -0.065
 46.906	 -0.095	 -0.055
 46.914	 -0.085	 -0.015
 46.922	 -0.105	  0.015
 46.930	 -0.175	 -0.005
 46.938	 -0.195	 -0.005
 46.945	 -0.145	  0.015
 46.953	 -0.125	 -0.025
 46.961	 -0.115	 -0.015
 46.969	 -0.125	 -0.015
 46.977	 -0.145	 -0.035
 46.984	 -0.135	 -0.015
 46.992	 -0.115	 -0.015
 47.000	 -0.135	 -0.045
 47.008	 -0.115	  0.005
 47.016	 -0.125	 -0.015
 47.023	 -0.125	 -0.045
 47.031	 -0.185	 -0.055
 47.039	 -0.115	 -0.035
 47.047	 -0.095	 -0.025
 47.055	 -0.115	 -0.035
 47.062	 -0.135	 -0.045
 47.070	 -0.165	 -0.025
 47.078	 -0.145	 -0.005
 47.086	 -0.155	 -0.025
 47.094	 -0.135	 -0.035
 47.102	 -0.155	 -0.045
 47.109	 -0.175	 -0.025
 47.117	 -0.115	 -0.005
 47.125	 -0.115	  0.005
 47.133	 -0.075	  0.005
 47.141	 -0.085	  0.045
 47.148	 -0.055	  0.045
 47.156	  0.055	 -0.025
 47.164	 -0.025	 -0.045
 47.172	 -0.065	 -0.085
 47.180	 -0.085	 -0.055
 47.188	 -0.055	 -0.035
 47.195	 -0.105	 -0.035
 47.203	 -0.125	 -0.045
 47.211	 -0.175	 -0.075
 47.219	 -0.175	 -0.065
 47.227	 -0.215	 -0.055
 47.234	 -0.195	 -0.055
 47.242	 -0.205	 -0.055
 47.250	 -0.165	 -0.055
 47.258	 -0.175	  0.045
 47.266	 -0.725	  0.165
 47.273	 -0.365	 -0.135
 47.281	  1.055	 -0.505
 47.289	  2.535	 -0.225
 47.297	  2.845	  0.155
 47.305	  2.525	  0.475
 47.312	  0.885	 -0.625
 47.320	 -0.325	 -0.745
 47.328	 -0.285	 -0.225
 47.336	 -0.265	 -0.055
 47.344	 -0.345	 -0.055
 47.352	 -0.325	 -0.065
 47.359	 -0.385	 -0.065
 47.367	 -0.325	 -0.065
 47.375	 -0.285	 -0.085
 47.383	 -0.265	 -0.065
 47.391	 -0.275	 -0.085
 47.398	 -0.285	 -0.085
 47.406	 -0.225	 -0.105
 47.414	 -0.205	 -0.115
 47.422	 -0.185	 -0.145
 47.430	 -0.175	 -0.145
 47.438	 -0.175	 -0.155
 47.445	 -0.135	 -0.185
 47.453	 -0.165	 -0.195
 47.461	 -0.105	 -0.215
 47.469	 -0.085	 -0.245
 47.477	 -0.125	 -0.275
 47.484	 -0.095	 -0.275
 47.492	 -0.095	 -0.265
 47.500	 -0.055	 -0.255
 47.508	 -0.155	 -0.255
 47.516	 -0.145	 -0.255
 47.523	 -0.125	 -0.225
 47.531	 -0.085	 -0.175
 47.539	 -0.075	 -0.135
 47.547	 -0.085	 -0.095
 47.555	 -0.085	 -0.075
 47.562	 -0.095	 -0.045
 47.570	 -0.115	 -0.035
 47.578	 -0.135	 -0.015
 47.586	 -0.125	 -0.005
 47.594	 -0.135	 -0.005
 47.602	 -0.125	 -0.025
 47.609	 -0.155	 -0.015
 47.617	 -0.135	  0.015
 47.625	 -0.125	 -0.015
 47.633	 -0.125	 -0.005
 47.641	 -0.145	 -0.045
 47.648	 -0.145	 -0.035
 47.656	 -0.115	 -0.025
 47.664	 -0.115	 -0.005
 47.672	 -0.115	 -0.005
 47.680	 -0.115	 -0.045
 47.688	 -0.135	 -0.035
 47.695	 -0.115	 -0.025
 47.703	 -0.095	 -0.025
 47.711	 -0.135	 -0.045
 47.719	 -0.135	 -0.045
 47.727	 -0.115	 -0.005
 47.734	 -0.115	 -0.025
 47.742	 -0.135	 -0.045
 47.750	 -0.115	 -0.035
 47.758	 -0.075	  0.015
 47.766	 -0.035	  0.035
 47.773	 -0.055	  0.045
 47.781	 -0.015	  0.035
 47.789	  0.045	 -0.035
 47.797	  0.015	 -0.065
 47.805	 -0.045	 -0.065
 47.812	 -0.115	 -0.065
 47.820	 -0.115	 -0.035
 47.828	 -0.115	  0.005
 47.836	 -0.115	 -0.055
 47.844	 -0.155	 -0.065
 47.852	 -0.185	 -0.025
 47.859	 -0.195	 -0.025
 47.867	 -0.185	 -0.055
 47.875	 -0.155	 -0.065
 47.883	 -0.125	 -0.045
 47.891	 -0.205	  0.075
 47.898	 -0.715	  0.195
 47.906	 -0.605	 -0.005
 47.914	  0.515	 -0.475
 47.922	  2.165	 -0.275
 47.930	  2.885	 -0.055
 47.938	  2.705	  0.465
 47.945	  1.535	 -0.445
 47.953	  0.025	 -0.865
 47.961	 -0.285	 -0.305
 47.969	 -0.245	 -0.015
 47.977	 -0.265	 -0.035
 47.984	 -0.325	 -0.055
 47.992	 -0.315	 -0.045
 48.000	 -0.345	 -0.055
 48.008	 -0.305	 -0.065
 48.016	 -0.335	 -0.035
 48.023	 -0.295	 -0.095
 48.031	 -0.245	 -0.075
 48.039	 -0.265	 -0.065
 48.047	 -0.255	 -0.075
 48.055	 -0.235	 -0.115
 48.062	 -0.175	 -0.115
 48.070	 -0.155	 -0.145
 48.078	 -0.155	 -0.125
 48.086	 -0.135	 -0.145
 48.094	 -0.125	 -0.195
 48.102	 -0.135	 -0.195
 48.109	 -0.065	 -0.225
 48.117	 -0.105	 -0.255
 48.125	 -0.135	 -0.265
 48.133	 -0.105	 -0.275
 48.141	 -0.165	 -0.235
 48.148	 -0.185	 -0.255
 48.156	 -0.185	 -0.285
 48.164	 -0.175	 -0.205
 48.172	 -0.145	 -0.145
 48.180	 -0.145	 -0.125
 48.188	 -0.125	 -0.085
 48.195	 -0.165	 -0.055
 48.203	 -0.145	  0.005
 48.211	 -0.165	 -0.025
 48.219	 -0.145	 -0.035
 48.227	 -0.155	  0.005
 48.234	 -0.165	  0.025
 48.242	 -0.155	 -0.015
 48.250	 -0.145	  0.005
 48.258	 -0.155	 -0.035
 48.266	 -0.165	 -0.005
 48.273	 -0.105	  0.015
 48.281	 -0.165	  0.005
 48.289	 -0.175	  0.005
 48.297	 -0.155	 -0.015
 48.305	 -0.145	  0.005
 48.312	 -0.135	 -0.005
 48.320	 -0.145	  0.005
 48.328	 -0.105	 -0.015
 48.336	 -0.145	 -0.015
 48.344	 -0.195	 -0.025
 48.352	 -0.135	 -0.015
 48.359	 -0.145	  0.005
 48.367	 -0.155	 -0.005
 48.375	 -0.155	 -0.015
 48.383	 -0.055	  0.045
 48.391	 -0.055	  0.065
 48.398	 -0.095	  0.055
 48.406	 -0.025	  0.035
 48.414	  0.045	 -0.035
 48.422	 -0.035	 -0.005
 48.430	 -0.075	 -0.045
 48.438	 -0.125	 -0.055
 48.445	 -0.125	 -0.035
 48.453	 -0.135	  0.015
 48.461	 -0.185	 -0.015
 48.469	 -0.165	 -0.035
 48.477	 -0.185	 -0.045
 48.484	 -0.195	 -0.025
 48.492	 -0.225	 -0.035
 48.500	 -0.245	 -0.035
 48.508	 -0.165	 -0.025
 48.516	 -0.165	 -0.005
 48.523	 -0.525	  0.205
 48.531	 -0.795	 -0.005
 48.539	 -0.165	 -0.475
 48.547	  1.525	 -0.495
 48.555	  2.675	 -0.125
 48.562	  2.805	  0.555
 48.570	  2.235	  0.395
 48.578	  0.645	 -0.725
 48.586	 -0.255	 -0.595
 48.594	 -0.245	 -0.165
 48.602	 -0.265	 -0.045
 48.609	 -0.365	 -0.025
 48.617	 -0.355	 -0.055
 48.625	 -0.355	 -0.085
 48.633	 -0.355	 -0.095
 48.641	 -0.335	 -0.065
 48.648	 -0.325	 -0.075
 48.656	 -0.285	 -0.075
 48.664	 -0.305	 -0.115
 48.672	 -0.265	 -0.105
 48.680	 -0.235	 -0.115
 48.688	 -0.245	 -0.135
 48.695	 -0.205	 -0.155
 48.703	 -0.195	 -0.155
 48.711	 -0.165	 -0.155
 48.719	 -0.165	 -0.205
 48.727	 -0.105	 -0.235
 48.734	 -0.105	 -0.245
 48.742	 -0.085	 -0.245
 48.750	 -0.115	 -0.285
 48.758	 -0.115	 -0.315
 48.766	 -0.155	 -0.295
 48.773	 -0.165	 -0.295
 48.781	 -0.145	 -0.275
 48.789	 -0.175	 -0.225
 48.797	 -0.165	 -0.165
 48.805	 -0.145	 -0.145
 48.812	 -0.135	 -0.115
 48.820	 -0.125	 -0.085
 48.828	 -0.145	 -0.045
 48.836	 -0.115	 -0.015
 48.844	 -0.185	 -0.005
 48.852	 -0.155	  0.025
 48.859	 -0.185	  0.005
 48.867	 -0.205	 -0.005
 48.875	 -0.155	 -0.015
 48.883	 -0.175	 -0.005
 48.891	 -0.205	  0.025
 48.898	 -0.135	  0.025
 48.906	 -0.095	  0.015
 48.914	 -0.145	 -0.015
 48.922	 -0.175	 -0.005
 48.930	 -0.165	 -0.005
 48.938	 -0.165	 -0.005
 48.945	 -0.145	  0.015
 48.953	 -0.145	  0.035
 48.961	 -0.165	 -0.025
 48.969	 -0.165	 -0.025
 48.977	 -0.145	 -0.005
 48.984	 -0.155	  0.015
 48.992	 -0.185	  0.005
 49.000	 -0.135	 -0.005
 49.008	 -0.135	 -0.005
 49.016	 -0.105	  0.015
 49.023	 -0.065	  0.025
 49.031	 -0.115	  0.025
 49.039	 -0.065	  0.025
 49.047	  0.025	  0.005
 49.055	  0.015	 -0.055
 49.062	 -0.055	 -0.065
 49.070	 -0.135	  0.005
 49.078	 -0.155	 -0.025
 49.086	 -0.105	 -0.005
 49.094	 -0.145	 -0.025
 49.102	 -0.165	 -0.015
 49.109	 -0.225	  0.005
 49.117	 -0.255	 -0.005
 49.125	 -0.235	 -0.025
 49.133	 -0.155	 -0.025
 49.141	 -0.205	 -0.005
 49.148	 -0.215	 -0.045
 49.156	 -0.265	  0.105
 49.164	 -0.785	  0.075
 49.172	 -0.555	 -0.245
 49.180	  0.805	 -0.665
 49.188	  2.365	 -0.125
 49.195	  2.675	  0.525
 49.203	  2.385	  0.905
 49.211	  1.135	 -0.405
 49.219	 -0.155	 -0.775
 49.227	 -0.345	 -0.315
 49.234	 -0.245	 -0.065
 49.242	 -0.305	 -0.065
 49.250	 -0.355	 -0.085
 49.258	 -0.375	 -0.065
 49.266	 -0.355	 -0.105
 49.273	 -0.375	 -0.105
 49.281	 -0.295	 -0.115
 49.289	 -0.305	 -0.115
 49.297	 -0.265	 -0.115
 49.305	 -0.255	 -0.135
 49.312	 -0.245	 -0.155
 49.320	 -0.255	 -0.175
 49.328	 -0.225	 -0.145
 49.336	 -0.215	 -0.225
 49.344	 -0.175	 -0.235
 49.352	 -0.175	 -0.265
 49.359	 -0.145	 -0.265
 49.367	 -0.145	 -0.295
 49.375	 -0.155	 -0.315
 49.383	 -0.145	 -0.325
 49.391	 -0.125	 -0.325
 49.398	 -0.165	 -0.335
 49.406	 -0.155	 -0.345
 49.414	 -0.155	 -0.315
 49.422	 -0.125	 -0.275
 49.430	 -0.125	 -0.255
 49.438	 -0.115	 -0.215
 49.445	 -0.115	 -0.145
 49.453	 -0.115	 -0.085
 49.461	 -0.105	 -0.045
 49.469	 -0.125	 -0.015
 49.477	 -0.125	  0.005
 49.484	 -0.145	  0.005
 49.492	 -0.165	  0.005
 49.500	 -0.135	 -0.015
 49.508	 -0.185	 -0.015
 49.516	 -0.205	  0.035
 49.523	 -0.155	  0.015
 49.531	 -0.175	  0.015
 49.539	 -0.145	  0.005
 49.547	 -0.125	  0.025
 49.555	 -0.145	  0.005
 49.562	 -0.135	  0.015
 49.570	 -0.185	  0.025
 49.578	 -0.135	  0.005
 49.586	 -0.175	 -0.005
 49.594	 -0.155	 -0.015
 49.602	 -0.165	  0.005
 49.609	 -0.175	  0.005
 49.617	 -0.215	  0.005
 49.625	 -0.125	 -0.005
 49.633	 -0.165	 -0.015
 49.641	 -0.225	  0.005
 49.648	 -0.065	  0.045
 49.656	 -0.055	  0.065
 49.664	 -0.085	  0.045
 49.672	 -0.015	  0.035
 49.680	  0.025	 -0.035
 49.688	 -0.065	 -0.055
 49.695	 -0.135	 -0.035
 49.703	 -0.145	 -0.025
 49.711	 -0.155	 -0.015
 49.719	 -0.145	 -0.015
 49.727	 -0.195	 -0.025
 49.734	 -0.195	 -0.015
 49.742	 -0.225	 -0.045
 49.750	 -0.275	 -0.035
 49.758	 -0.225	 -0.035
 49.766	 -0.195	 -0.015
 49.773	 -0.165	 -0.005
 49.781	 -0.445	  0.175
 49.789	 -0.875	  0.075
 49.797	 -0.335	 -0.225
 49.805	  1.275	 -0.415
 49.812	  2.665	 -0.105
 49.820	  2.845	  0.315
 49.828	  2.595	  0.585
 49.836	  0.925	 -0.515
 49.844	 -0.345	 -0.695
 49.852	 -0.345	 -0.235
 49.859	 -0.265	 -0.065
 49.867	 -0.325	 -0.035
 49.875	 -0.365	 -0.045
 49.883	 -0.385	 -0.065
 49.891	 -0.395	 -0.065
 49.898	 -0.335	 -0.065
 49.906	 -0.335	 -0.065
 49.914	 -0.335	 -0.085
 49.922	 -0.305	 -0.095
 49.930	 -0.275	 -0.065
 49.938	 -0.275	 -0.105
 49.945	 -0.295	 -0.115
 49.953	 -0.235	 -0.105
 49.961	 -0.215	 -0.135
 49.969	 -0.195	 -0.145
 49.977	 -0.175	 -0.155
 49.984	 -0.125	 -0.175
 49.992	 -0.115	 -0.205
 50.000	 -0.145	 -0.215
 50.008	 -0.125	 -0.225
 50.016	 -0.135	 -0.215
 50.023	 -0.165	 -0.225
 50.031	 -0.175	 -0.235
 50.039	 -0.205	 -0.215
 50.047	 -0.175	 -0.175
 50.055	 -0.175	 -0.155
 50.062	 -0.125	 -0.115
 50.070	 -0.115	 -0.075
 50.078	 -0.145	 -0.055
 50.086	 -0.165	 -0.035
 50.094	 -0.145	 -0.025
 50.102	 -0.135	  0.005
 50.109	 -0.185	  0.015
 50.117	 -0.225	  0.005
 50.125	 -0.165	 -0.005
 50.133	 -0.155	  0.005
 50.141	 -0.175	  0.015
 50.148	 -0.175	  0.035
 50.156	 -0.175	 -0.005
 50.164	 -0.185	 -0.005
 50.172	 -0.175	  0.015
 50.180	 -0.135	 -0.005
 50.188	 -0.225	 -0.015
 50.195	 -0.185	  0.015
 50.203	 -0.165	  0.025
 50.211	 -0.175	  0.015
 50.219	 -0.185	  0.005
 50.227	 -0.125	  0.005
 50.234	 -0.125	  0.015
 50.242	 -0.215	 -0.005
 50.250	 -0.195	  0.005
 50.258	 -0.165	  0.005
 50.266	 -0.105	  0.045
 50.273	 -0.075	  0.065
 50.281	 -0.075	  0.055
 50.289	 -0.095	  0.065
 50.297	  0.005	  0.025
 50.305	 -0.045	 -0.025
 50.312	 -0.075	 -0.055
 50.320	 -0.125	 -0.005
 50.328	 -0.155	 -0.005
 50.336	 -0.195	 -0.005
 50.344	 -0.195	 -0.015
 50.352	 -0.185	 -0.025
 50.359	 -0.215	 -0.005
 50.367	 -0.235	 -0.025
 50.375	 -0.265	 -0.025
 50.383	 -0.175	 -0.025
 50.391	 -0.175	 -0.015
 50.398	 -0.195	  0.015
 50.406	 -0.585	  0.235
 50.414	 -0.865	  0.085
 50.422	  0.005	 -0.325
 50.430	  1.735	 -0.235
 50.438	  2.755	 -0.095
 50.445	  2.745	  0.505
 50.453	  2.125	 -0.085
 50.461	  0.405	 -0.855
 50.469	 -0.275	 -0.405
 50.477	 -0.225	 -0.045
 50.484	 -0.245	  0.005
 50.492	 -0.345	 -0.005
 50.500	 -0.365	 -0.035
 50.508	 -0.355	 -0.025
 50.516	 -0.365	 -0.025
 50.523	 -0.345	 -0.025
 50.531	 -0.325	 -0.035
 50.539	 -0.285	 -0.025
 50.547	 -0.265	 -0.055
 50.555	 -0.235	 -0.045
 50.562	 -0.235	 -0.055
 50.570	 -0.235	 -0.065
 50.578	 -0.195	 -0.065
 50.586	 -0.165	 -0.075
 50.594	 -0.165	 -0.105
 50.602	 -0.125	 -0.125
 50.609	 -0.105	 -0.115
 50.617	 -0.115	 -0.145
 50.625	 -0.135	 -0.195
 50.633	 -0.115	 -0.205
 50.641	 -0.135	 -0.185
 50.648	 -0.145	 -0.205
 50.656	 -0.155	 -0.185
 50.664	 -0.185	 -0.165
 50.672	 -0.215	 -0.135
 50.680	 -0.155	 -0.105
 50.688	 -0.145	 -0.095
 50.695	 -0.125	 -0.055
 50.703	 -0.135	 -0.015
 50.711	 -0.195	  0.005
 50.719	 -0.145	  0.005
 50.727	 -0.175	  0.025
 50.734	 -0.145	  0.055
 50.742	 -0.155	  0.035
 50.750	 -0.145	  0.025
 50.758	 -0.185	  0.025
 50.766	 -0.135	  0.045
 50.773	 -0.195	  0.035
 50.781	 -0.135	  0.035
 50.789	 -0.135	  0.005
 50.797	 -0.175	  0.015
 50.805	 -0.155	  0.015
 50.812	 -0.155	  0.005
 50.820	 -0.135	  0.015
 50.828	 -0.155	  0.025
 50.836	 -0.195	  0.015
 50.844	 -0.135	  0.005
 50.852	 -0.145	  0.025
 50.859	 -0.145	 -0.005
 50.867	 -0.165	  0.005
 50.875	 -0.115	  0.025
 50.883	 -0.095	  0.065
 50.891	 -0.065	  0.075
 50.898	 -0.085	  0.075
 50.906	  0.025	 -0.015
 50.914	 -0.015	 -0.035
 50.922	 -0.075	 -0.015
 50.930	 -0.175	 -0.025
 50.938	 -0.105	 -0.015
 50.945	 -0.135	 -0.005
 50.953	 -0.165	  0.015
 50.961	 -0.175	 -0.005
 50.969	 -0.225	 -0.025
 50.977	 -0.245	 -0.025
 50.984	 -0.225	  0.015
 50.992	 -0.235	 -0.015
 51.000	 -0.195	 -0.025
 51.008	 -0.205	 -0.005
 51.016	 -0.425	  0.215
 51.023	 -0.875	  0.095
 51.031	 -0.525	 -0.265
 51.039	  0.835	 -0.545
 51.047	  2.465	 -0.215
 51.055	  2.945	  0.375
 51.062	  2.645	  0.635
 51.070	  1.305	 -0.575
 51.078	 -0.135	 -0.665
 51.086	 -0.305	 -0.165
 51.094	 -0.295	 -0.035
 51.102	 -0.355	 -0.025
 51.109	 -0.375	 -0.015
 51.117	 -0.325	 -0.055
 51.125	 -0.355	 -0.055
 51.133	 -0.345	 -0.055
 51.141	 -0.315	 -0.055
 51.148	 -0.315	 -0.075
 51.156	 -0.315	 -0.075
 51.164	 -0.305	 -0.085
 51.172	 -0.245	 -0.065
 51.180	 -0.255	 -0.095
 51.188	 -0.245	 -0.115
 51.195	 -0.185	 -0.125
 51.203	 -0.145	 -0.105
 51.211	 -0.145	 -0.155
 51.219	 -0.135	 -0.195
 51.227	 -0.145	 -0.195
 51.234	 -0.105	 -0.205
 51.242	 -0.105	 -0.255
 51.250	 -0.075	 -0.275
 51.258	 -0.135	 -0.265
 51.266	 -0.135	 -0.265
 51.273	 -0.185	 -0.255
 51.281	 -0.205	 -0.255
 51.289	 -0.185	 -0.205
 51.297	 -0.165	 -0.145
 51.305	 -0.115	 -0.115
 51.312	 -0.115	 -0.085
 51.320	 -0.135	 -0.035
 51.328	 -0.115	 -0.005
 51.336	 -0.145	 -0.015
 51.344	 -0.175	 -0.015
 51.352	 -0.155	  0.005
 51.359	 -0.165	 -0.005
 51.367	 -0.145	  0.015
 51.375	 -0.175	  0.015
 51.383	 -0.175	  0.005
 51.391	 -0.155	 -0.015
 51.398	 -0.145	 -0.015
 51.406	 -0.145	 -0.025
 51.414	 -0.155	 -0.005
 51.422	 -0.125	  0.005
 51.430	 -0.155	 -0.005
 51.438	 -0.165	 -0.015
 51.445	 -0.155	 -0.015
 51.453	 -0.155	 -0.005
 51.461	 -0.135	  0.005
 51.469	 -0.155	 -0.015
 51.477	 -0.185	 -0.025
 51.484	 -0.125	  0.005
 51.492	 -0.105	 -0.005
 51.500	 -0.095	  0.035
 51.508	 -0.085	  0.035
 51.516	 -0.095	  0.065
 51.523	 -0.035	  0.015
 51.531	  0.035	 -0.055
 51.539	 -0.005	 -0.045
 51.547	 -0.045	 -0.025
 51.555	 -0.095	 -0.035
 51.562	 -0.145	 -0.015
 51.570	 -0.135	 -0.025
 51.578	 -0.135	 -0.015
 51.586	 -0.175	 -0.035
 51.594	 -0.185	 -0.035
 51.602	 -0.225	 -0.005
 51.609	 -0.175	 -0.015
 51.617	 -0.215	 -0.035
 51.625	 -0.175	 -0.025
 51.633	 -0.155	  0.045
 51.641	 -0.705	  0.185
 51.648	 -0.785	 -0.115
 51.656	  0.315	 -0.675
 51.664	  2.165	 -0.205
 51.672	  2.895	  0.455
 51.680	  2.595	  0.855
 51.688	  1.225	 -0.535
 51.695	 -0.145	 -0.765
 51.703	 -0.315	 -0.255
 51.711	 -0.305	 -0.045
 51.719	 -0.305	 -0.065
 51.727	 -0.305	 -0.075
 51.734	 -0.315	 -0.075
 51.742	 -0.315	 -0.085
 51.750	 -0.295	 -0.095
 51.758	 -0.285	 -0.105
 51.766	 -0.265	 -0.105
 51.773	 -0.265	 -0.125
 51.781	 -0.245	 -0.145
 51.789	 -0.225	 -0.135
 51.797	 -0.215	 -0.135
 51.805	 -0.195	 -0.175
 51.812	 -0.225	 -0.195
 51.820	 -0.145	 -0.195
 51.828	 -0.135	 -0.205
 51.836	 -0.135	 -0.275
 51.844	 -0.125	 -0.305
 51.852	 -0.065	 -0.315
 51.859	 -0.085	 -0.335
 51.867	 -0.105	 -0.355
 51.875	 -0.185	 -0.365
 51.883	 -0.145	 -0.365
 51.891	 -0.125	 -0.325
 51.898	 -0.135	 -0.315
 51.906	 -0.125	 -0.275
 51.914	 -0.115	 -0.205
 51.922	 -0.075	 -0.155
 51.930	 -0.065	 -0.115
 51.938	 -0.085	 -0.085
 51.945	 -0.105	 -0.045
 51.953	 -0.155	 -0.025
 51.961	 -0.105	 -0.005
 51.969	 -0.135	 -0.035
 51.977	 -0.165	 -0.035
 51.984	 -0.135	 -0.015
 51.992	 -0.115	 -0.015
 52.000	 -0.135	 -0.025
 52.008	 -0.135	 -0.025
 52.016	 -0.125	  0.015
 52.023	 -0.135	 -0.015
 52.031	 -0.175	  0.005
 52.039	 -0.145	 -0.015
 52.047	 -0.135	 -0.015
 52.055	 -0.145	 -0.015
 52.062	 -0.155	 -0.035
 52.070	 -0.145	 -0.035
 52.078	 -0.125	 -0.005
 52.086	 -0.135	 -0.025
 52.094	 -0.135	 -0.015
 52.102	 -0.125	 -0.025
 52.109	 -0.125	  0.005
 52.117	 -0.105	  0.035
 52.125	 -0.085	  0.025
 52.133	 -0.085	  0.005
 52.141	  0.035	 -0.025
 52.148	  0.015	 -0.065
 52.156	 -0.065	 -0.065
 52.164	 -0.095	 -0.065
 52.172	 -0.135	 -0.055
 52.180	 -0.145	 -0.025
 52.188	 -0.125	 -0.035
 52.195	 -0.145	 -0.045
 52.203	 -0.185	 -0.055
 52.211	 -0.225	 -0.045
 52.219	 -0.255	 -0.045
 52.227	 -0.215	 -0.045
 52.234	 -0.135	 -0.025
 52.242	 -0.145	 -0.045
 52.250	 -0.335	  0.125
 52.258	 -0.915	  0.095
 52.266	 -0.545	 -0.155
 52.273	  0.695	 -0.505
 52.281	  2.345	 -0.185
 52.289	  2.835	  0.205
 52.297	  2.585	  0.695
 52.305	  1.275	 -0.445
 52.312	 -0.195	 -0.745
 52.320	 -0.365	 -0.285
 52.328	 -0.255	 -0.045
 52.336	 -0.295	 -0.055
 52.344	 -0.345	 -0.085
 52.352	 -0.355	 -0.085
 52.359	 -0.305	 -0.075
 52.367	 -0.345	 -0.095
 52.375	 -0.345	 -0.095
 52.383	 -0.295	 -0.085
 52.391	 -0.265	 -0.095
 52.398	 -0.285	 -0.115
 52.406	 -0.285	 -0.135
 52.414	 -0.225	 -0.135
 52.422	 -0.175	 -0.145
 52.430	 -0.205	 -0.165
 52.438	 -0.185	 -0.175
 52.445	 -0.165	 -0.195
 52.453	 -0.165	 -0.225
 52.461	 -0.145	 -0.265
 52.469	 -0.115	 -0.285
 52.477	 -0.135	 -0.285
 52.484	 -0.155	 -0.275
 52.492	 -0.155	 -0.265
 52.500	 -0.175	 -0.265
 52.508	 -0.205	 -0.255
 52.516	 -0.205	 -0.205
 52.523	 -0.165	 -0.205
 52.531	 -0.105	 -0.165
 52.539	 -0.105	 -0.105
 52.547	 -0.095	 -0.065
 52.555	 -0.135	 -0.045
 52.562	 -0.155	 -0.065
 52.570	 -0.145	 -0.035
 52.578	 -0.135	 -0.015
 52.586	 -0.145	 -0.015
 52.594	 -0.185	 -0.025
 52.602	 -0.185	 -0.025
 52.609	 -0.135	 -0.005
 52.617	 -0.175	 -0.025
 52.625	 -0.155	 -0.025
 52.633	 -0.135	 -0.015
 52.641	 -0.175	 -0.035
 52.648	 -0.155	 -0.045
 52.656	 -0.155	 -0.055
 52.664	 -0.145	 -0.025
 52.672	 -0.135	 -0.025
 52.680	 -0.155	 -0.025
 52.688	 -0.185	 -0.045
 52.695	 -0.185	 -0.025
 52.703	 -0.105	 -0.015
 52.711	 -0.145	 -0.015
 52.719	 -0.065	  0.035
 52.727	 -0.085	  0.045
 52.734	 -0.095	  0.065
 52.742	 -0.055	  0.025
 52.750	  0.015	 -0.055
 52.758	  0.005	 -0.055
 52.766	 -0.085	 -0.055
 52.773	 -0.165	 -0.035
 52.781	 -0.105	 -0.025
 52.789	 -0.115	 -0.015
 52.797	 -0.125	 -0.005
 52.805	 -0.205	 -0.035
 52.812	 -0.215	 -0.045
 52.820	 -0.205	 -0.035
 52.828	 -0.175	 -0.025
 52.836	 -0.195	 -0.025
 52.844	 -0.135	 -0.005
 52.852	 -0.165	  0.075
 52.859	 -0.745	  0.235
 52.867	 -0.825	  0.005
 52.875	  0.135	 -0.435
 52.883	  1.845	 -0.205
 52.891	  2.735	 -0.005
 52.898	  2.695	  0.545
 52.906	  1.885	 -0.365
 52.914	  0.295	 -0.865
 52.922	 -0.235	 -0.315
 52.930	 -0.225	 -0.015
 52.938	 -0.255	 -0.015
 52.945	 -0.305	 -0.015
 52.953	 -0.315	 -0.025
 52.961	 -0.285	 -0.045
 52.969	 -0.265	 -0.045
 52.977	 -0.275	 -0.035
 52.984	 -0.285	 -0.045
 52.992	 -0.265	 -0.045
 53.000	 -0.245	 -0.065
 53.008	 -0.245	 -0.075
 53.016	 -0.195	 -0.035
 53.023	 -0.185	 -0.075
 53.031	 -0.175	 -0.105
 53.039	 -0.135	 -0.115
 53.047	 -0.135	 -0.115
 53.055	 -0.115	 -0.115
 53.062	 -0.105	 -0.175
 53.070	 -0.095	 -0.165
 53.078	 -0.115	 -0.205
 53.086	 -0.115	 -0.235
 53.094	 -0.125	 -0.205
 53.102	 -0.145	 -0.225
 53.109	 -0.175	 -0.215
 53.117	 -0.195	 -0.205
 53.125	 -0.205	 -0.175
 53.133	 -0.145	 -0.155
 53.141	 -0.145	 -0.085
 53.148	 -0.115	 -0.065
 53.156	 -0.145	 -0.055
 53.164	 -0.165	 -0.025
 53.172	 -0.125	  0.005
 53.180	 -0.135	 -0.005
 53.188	 -0.135	  0.025
 53.195	 -0.145	  0.015
 53.203	 -0.135	  0.015
 53.211	 -0.155	  0.015
 53.219	 -0.135	 -0.015
 53.227	 -0.185	  0.005
 53.234	 -0.145	  0.005
 53.242	 -0.135	  0.005
 53.250	 -0.165	 -0.015
 53.258	 -0.165	  0.005
 53.266	 -0.135	 -0.005
 53.273	 -0.115	 -0.005
 53.281	 -0.185	  0.015
 53.289	 -0.145	 -0.035
 53.297	 -0.145	 -0.005
 53.305	 -0.135	  0.015
 53.312	 -0.175	 -0.005
 53.320	 -0.135	  0.025
 53.328	 -0.085	  0.055
 53.336	 -0.075	  0.055
 53.344	 -0.105	  0.075
 53.352	 -0.075	  0.065
 53.359	  0.035	 -0.005
 53.367	 -0.015	 -0.055
 53.375	 -0.105	 -0.045
 53.383	 -0.125	  0.005
 53.391	 -0.135	  0.015
 53.398	 -0.165	  0.025
 53.406	 -0.165	 -0.015
 53.414	 -0.225	 -0.015
 53.422	 -0.235	  0.025
 53.430	 -0.285	  0.035
 53.438	 -0.245	 -0.005
 53.445	 -0.205	 -0.015
 53.453	 -0.195	  0.005
 53.461	 -0.235	  0.175
 53.469	 -0.905	  0.185
 53.477	 -0.775	 -0.155
 53.484	  0.505	 -0.575
 53.492	  2.325	 -0.195
 53.500	  2.935	  0.495
 53.508	  2.605	  0.595
 53.516	  1.235	 -0.725
 53.523	 -0.165	 -0.635
 53.531	 -0.315	 -0.155
 53.539	 -0.285	 -0.015
 53.547	 -0.315	 -0.025
 53.555	 -0.355	 -0.015
 53.562	 -0.425	 -0.035
 53.570	 -0.405	 -0.045
 53.578	 -0.335	 -0.025
 53.586	 -0.315	 -0.035
 53.594	 -0.335	 -0.075
 53.602	 -0.335	 -0.085
 53.609	 -0.305	 -0.055
 53.617	 -0.325	 -0.085
 53.625	 -0.275	 -0.095
 53.633	 -0.215	 -0.095
 53.641	 -0.205	 -0.125
 53.648	 -0.235	 -0.115
 53.656	 -0.175	 -0.165
 53.664	 -0.185	 -0.195
 53.672	 -0.115	 -0.195
 53.680	 -0.165	 -0.225
 53.688	 -0.155	 -0.235
 53.695	 -0.165	 -0.295
 53.703	 -0.175	 -0.275
 53.711	 -0.175	 -0.265
 53.719	 -0.205	 -0.255
 53.727	 -0.235	 -0.245
 53.734	 -0.205	 -0.185
 53.742	 -0.175	 -0.155
 53.750	 -0.145	 -0.135
 53.758	 -0.185	 -0.055
 53.766	 -0.125	 -0.045
 53.773	 -0.155	 -0.005
 53.781	 -0.195	  0.035
 53.789	 -0.185	 -0.015
 53.797	 -0.195	  0.005
 53.805	 -0.205	  0.015
 53.812	 -0.185	 -0.005
 53.820	 -0.215	  0.005
 53.828	 -0.185	  0.015
 53.836	 -0.155	  0.015
 53.844	 -0.185	 -0.005
 53.852	 -0.165	 -0.005
 53.859	 -0.155	  0.035
 53.867	 -0.185	  0.005
 53.875	 -0.165	 -0.005
 53.883	 -0.185	  0.005
 53.891	 -0.165	  0.015
 53.898	 -0.205	  0.005
 53.906	 -0.185	 -0.015
 53.914	 -0.185	 -0.005
 53.922	 -0.185	 -0.005
 53.930	 -0.145	  0.005
 53.938	 -0.115	  0.035
 53.945	 -0.075	  0.065
 53.953	 -0.105	  0.075
 53.961	 -0.045	  0.015
 53.969	 -0.025	 -0.055
 53.977	 -0.095	 -0.075
 53.984	 -0.115	 -0.015
 53.992	 -0.145	 -0.005
 54.000	 -0.135	  0.005
 54.008	 -0.215	  0.005
 54.016	 -0.205	 -0.035
 54.023	 -0.235	 -0.005
 54.031	 -0.265	 -0.025
 54.039	 -0.235	  0.005
 54.047	 -0.185	 -0.035
 54.055	 -0.195	 -0.025
 54.062	 -0.195	 -0.015
 54.070	 -0.375	  0.185
 54.078	 -0.935	  0.065
 54.086	 -0.705	 -0.355
 54.094	  0.635	 -0.675
 54.102	  2.355	 -0.065
 54.109	  2.855	  0.685
 54.117	  2.485	  0.755
 54.125	  0.825	 -0.725
 54.133	 -0.315	 -0.615
 54.141	 -0.335	 -0.155
 54.148	 -0.335	 -0.055
 54.156	 -0.345	 -0.075
 54.164	 -0.365	 -0.085
 54.172	 -0.375	 -0.085
 54.180	 -0.375	 -0.105
 54.188	 -0.335	 -0.115
 54.195	 -0.375	 -0.115
 54.203	 -0.345	 -0.105
 54.211	 -0.295	 -0.135
 54.219	 -0.305	 -0.165
 54.227	 -0.255	 -0.165
 54.234	 -0.275	 -0.165
 54.242	 -0.255	 -0.175
 54.250	 -0.255	 -0.245
 54.258	 -0.195	 -0.285
 54.266	 -0.175	 -0.285
 54.273	 -0.175	 -0.315
 54.281	 -0.175	 -0.325
 54.289	 -0.175	 -0.355
 54.297	 -0.185	 -0.365
 54.305	 -0.165	 -0.365
 54.312	 -0.255	 -0.345
 54.320	 -0.235	 -0.405
 54.328	 -0.215	 -0.355
 54.336	 -0.205	 -0.305
 54.344	 -0.155	 -0.275
 54.352	 -0.165	 -0.205
 54.359	 -0.155	 -0.125
 54.367	 -0.135	 -0.095
 54.375	 -0.135	 -0.065
 54.383	 -0.165	 -0.035
 54.391	 -0.185	 -0.045
 54.398	 -0.185	 -0.055
 54.406	 -0.225	 -0.035
 54.414	 -0.195	 -0.005
 54.422	 -0.155	 -0.015
 54.430	 -0.185	 -0.015
 54.438	 -0.195	 -0.005
 54.445	 -0.185	 -0.015
 54.453	 -0.165	 -0.005
 54.461	 -0.235	 -0.025
 54.469	 -0.205	 -0.025
 54.477	 -0.195	 -0.035
 54.484	 -0.145	 -0.025
 54.492	 -0.185	 -0.005
 54.500	 -0.235	 -0.025
 54.508	 -0.195	 -0.025
 54.516	 -0.225	 -0.015
 54.523	 -0.175	 -0.015
 54.531	 -0.185	 -0.035
 54.539	 -0.225	 -0.025
 54.547	 -0.185	 -0.015
 54.555	 -0.145	  0.015
 54.562	 -0.135	  0.045
 54.570	 -0.125	  0.035
 54.578	 -0.185	  0.055
 54.586	 -0.005	 -0.005
 54.594	 -0.035	 -0.055
 54.602	 -0.155	 -0.065
 54.609	 -0.145	 -0.045
 54.617	 -0.165	 -0.035
 54.625	 -0.155	 -0.015
 54.633	 -0.185	 -0.015
 54.641	 -0.215	 -0.025
 54.648	 -0.235	 -0.055
 54.656	 -0.265	 -0.045
 54.664	 -0.255	 -0.035
 54.672	 -0.215	 -0.015
 54.680	 -0.235	 -0.025
 54.688	 -0.235	  0.005
 54.695	 -0.485	  0.175
 54.703	 -0.925	 -0.025
 54.711	 -0.305	 -0.375
 54.719	  1.225	 -0.395
 54.727	  2.605	 -0.065
 54.734	  2.705	  0.565
 54.742	  2.245	  0.505
 54.750	  0.465	 -0.795
 54.758	 -0.405	 -0.575
 54.766	 -0.335	 -0.105
 54.773	 -0.305	 -0.025
 54.781	 -0.365	 -0.065
 54.789	 -0.385	 -0.045
 54.797	 -0.385	 -0.075
 54.805	 -0.375	 -0.085
 54.812	 -0.375	 -0.095
 54.820	 -0.335	 -0.085
 54.828	 -0.345	 -0.075
 54.836	 -0.355	 -0.075
 54.844	 -0.275	 -0.115
 54.852	 -0.255	 -0.085
 54.859	 -0.245	 -0.115
 54.867	 -0.245	 -0.155
 54.875	 -0.215	 -0.155
 54.883	 -0.185	 -0.185
 54.891	 -0.175	 -0.195
 54.898	 -0.205	 -0.215
 54.906	 -0.165	 -0.225
 54.914	 -0.165	 -0.275
 54.922	 -0.165	 -0.265
 54.930	 -0.175	 -0.265
 54.938	 -0.245	 -0.235
 54.945	 -0.215	 -0.235
 54.953	 -0.205	 -0.235
 54.961	 -0.155	 -0.205
 54.969	 -0.135	 -0.145
 54.977	 -0.115	 -0.105
 54.984	 -0.095	 -0.075
 54.992	 -0.135	 -0.055
 55.000	 -0.175	 -0.015
 55.008	 -0.165	 -0.015
 55.016	 -0.135	 -0.005
 55.023	 -0.145	  0.035
 55.031	 -0.175	  0.025
 55.039	 -0.175	 -0.005
 55.047	 -0.165	  0.015
 55.055	 -0.145	  0.005
 55.062	 -0.195	 -0.005
 55.070	 -0.205	 -0.005
 55.078	 -0.165	 -0.005
 55.086	 -0.185	  0.025
 55.094	 -0.165	  0.025
 55.102	 -0.135	 -0.005
 55.109	 -0.165	  0.025
 55.117	 -0.205	 -0.005
 55.125	 -0.155	 -0.005
 55.133	 -0.145	 -0.005
 55.141	 -0.165	 -0.005
 55.148	 -0.175	  0.025
 55.156	 -0.175	  0.015
 55.164	 -0.125	  0.025
 55.172	 -0.085	  0.095
 55.180	 -0.105	  0.065
 55.188	 -0.145	  0.065
 55.195	 -0.025	  0.065
 55.203	  0.005	  0.005
 55.211	 -0.045	 -0.045
 55.219	 -0.085	 -0.015
 55.227	 -0.095	 -0.025
 55.234	 -0.115	  0.025
 55.242	 -0.175	  0.035
 55.250	 -0.175	 -0.015
 55.258	 -0.205	  0.005
 55.266	 -0.275	 -0.005
 55.273	 -0.255	 -0.005
 55.281	 -0.225	 -0.015
 55.289	 -0.145	 -0.005
 55.297	 -0.185	  0.055
 55.305	 -0.395	  0.235
 55.312	 -0.925	  0.115
 55.320	 -0.445	 -0.195
 55.328	  0.985	 -0.365
 55.336	  2.495	 -0.115
 55.344	  2.925	  0.325
 55.352	  2.605	  0.545
 55.359	  1.095	 -0.665
 55.367	 -0.215	 -0.605
 55.375	 -0.285	 -0.135
 55.383	 -0.295	  0.005
 55.391	 -0.315	 -0.005
 55.398	 -0.325	 -0.015
 55.406	 -0.345	 -0.005
 55.414	 -0.335	 -0.035
 55.422	 -0.335	 -0.025
 55.430	 -0.335	 -0.045
 55.438	 -0.265	 -0.045
 55.445	 -0.275	 -0.055
 55.453	 -0.295	 -0.035
 55.461	 -0.255	 -0.055
 55.469	 -0.195	 -0.075
 55.477	 -0.185	 -0.085
 55.484	 -0.165	 -0.095
 55.492	 -0.165	 -0.115
 55.500	 -0.135	 -0.145
 55.508	 -0.165	 -0.155
 55.516	 -0.115	 -0.155
 55.523	 -0.125	 -0.215
 55.531	 -0.115	 -0.205
 55.539	 -0.135	 -0.235
 55.547	 -0.175	 -0.225
 55.555	 -0.195	 -0.195
 55.562	 -0.175	 -0.195
 55.570	 -0.185	 -0.195
 55.578	 -0.185	 -0.135
 55.586	 -0.135	 -0.095
 55.594	 -0.095	 -0.075
 55.602	 -0.095	 -0.025
 55.609	 -0.105	 -0.005
 55.617	 -0.125	 -0.005
 55.625	 -0.115	  0.005
 55.633	 -0.125	  0.025
 55.641	 -0.145	  0.055
 55.648	 -0.115	  0.015
 55.656	 -0.135	  0.015
 55.664	 -0.125	  0.025
 55.672	 -0.135	  0.045
 55.680	 -0.115	 -0.005
 55.688	 -0.145	 -0.005
 55.695	 -0.125	  0.005
 55.703	 -0.105	  0.025
 55.711	 -0.105	  0.025
 55.719	 -0.125	  0.005
 55.727	 -0.115	  0.005
 55.734	 -0.145	  0.025
 55.742	 -0.115	  0.025
 55.750	 -0.095	  0.025
 55.758	 -0.115	  0.025
 55.766	 -0.115	  0.055
 55.773	 -0.065	  0.075
 55.781	 -0.055	  0.095
 55.789	 -0.055	  0.105
 55.797	 -0.015	  0.105
 55.805	  0.035	  0.025
 55.812	  0.005	  0.005
 55.820	 -0.065	 -0.025
 55.828	 -0.035	  0.015
 55.836	 -0.115	  0.035
 55.844	 -0.075	  0.065
 55.852	 -0.115	  0.035
 55.859	 -0.165	  0.025
 55.867	 -0.175	  0.045
 55.875	 -0.195	  0.005
 55.883	 -0.185	  0.015
 55.891	 -0.195	  0.025
 55.898	 -0.115	  0.025
 55.906	 -0.215	  0.145
 55.914	 -0.845	  0.195
 55.922	 -0.685	 -0.105
 55.930	  0.645	 -0.535
 55.938	  2.365	 -0.215
 55.945	  2.935	  0.355
 55.953	  2.755	  0.725
 55.961	  1.585	 -0.515
 55.969	  0.035	 -0.785
 55.977	 -0.275	 -0.215
 55.984	 -0.255	  0.025
 55.992	 -0.275	 -0.015
 56.000	 -0.315	 -0.035
 56.008	 -0.355	 -0.025
 56.016	 -0.275	 -0.025
 56.023	 -0.305	 -0.025
 56.031	 -0.295	 -0.075
 56.039	 -0.265	 -0.065
 56.047	 -0.255	 -0.045
 56.055	 -0.255	 -0.075
 56.062	 -0.245	 -0.085
 56.070	 -0.215	 -0.105
 56.078	 -0.185	 -0.105
 56.086	 -0.165	 -0.135
 56.094	 -0.145	 -0.115
 56.102	 -0.135	 -0.155
 56.109	 -0.125	 -0.185
 56.117	 -0.115	 -0.205
 56.125	 -0.065	 -0.225
 56.133	 -0.075	 -0.255
 56.141	 -0.095	 -0.235
 56.148	 -0.115	 -0.265
 56.156	 -0.165	 -0.255
 56.164	 -0.165	 -0.275
 56.172	 -0.195	 -0.265
 56.180	 -0.155	 -0.205
 56.188	 -0.135	 -0.165
 56.195	 -0.105	 -0.135
 56.203	 -0.115	 -0.045
 56.211	 -0.115	 -0.055
 56.219	 -0.105	 -0.025
 56.227	 -0.105	 -0.015
 56.234	 -0.135	 -0.005
 56.242	 -0.105	  0.015
 56.250	 -0.105	  0.005
 56.258	 -0.125	  0.005
 56.266	 -0.145	 -0.005
 56.273	 -0.125	 -0.015
 56.281	 -0.135	 -0.015
 56.289	 -0.145	 -0.015
 56.297	 -0.095	  0.015
 56.305	 -0.095	  0.005
 56.312	 -0.135	 -0.015
 56.320	 -0.115	 -0.005
 56.328	 -0.095	 -0.015
 56.336	 -0.105	 -0.025
 56.344	 -0.115	 -0.025
 56.352	 -0.105	 -0.005
 56.359	 -0.175	 -0.015
 56.367	 -0.095	 -0.025
 56.375	 -0.175	 -0.015
 56.383	 -0.125	 -0.005
 56.391	 -0.055	  0.035
 56.398	 -0.045	  0.025
 56.406	 -0.065	  0.025
 56.414	 -0.045	  0.035
 56.422	  0.065	 -0.005
 56.430	  0.065	 -0.045
 56.438	 -0.035	 -0.085
 56.445	 -0.075	 -0.025
 56.453	 -0.135	 -0.035
 56.461	 -0.085	  0.005
 56.469	 -0.125	 -0.025
 56.477	 -0.125	 -0.025
 56.484	 -0.165	 -0.025
 56.492	 -0.215	 -0.035
 56.500	 -0.175	 -0.025
 56.508	 -0.175	  0.005
 56.516	 -0.165	 -0.045
 56.523	 -0.185	  0.055
 56.531	 -0.705	  0.155
 56.539	 -0.815	 -0.155
 56.547	  0.385	 -0.735
 56.555	  2.215	 -0.225
 56.562	  2.865	  0.475
 56.570	  2.575	  0.795
 56.578	  1.095	 -0.605
 56.586	 -0.155	 -0.685
 56.594	 -0.285	 -0.175
 56.602	 -0.315	 -0.035
 56.609	 -0.315	 -0.035
 56.617	 -0.335	 -0.085
 56.625	 -0.345	 -0.105
 56.633	 -0.325	 -0.075
 56.641	 -0.305	 -0.085
 56.648	 -0.285	 -0.085
 56.656	 -0.285	 -0.115
 56.664	 -0.255	 -0.105
 56.672	 -0.245	 -0.115
 56.680	 -0.225	 -0.145
 56.688	 -0.225	 -0.175
 56.695	 -0.205	 -0.155
 56.703	 -0.215	 -0.155
 56.711	 -0.125	 -0.185
 56.719	 -0.125	 -0.225
 56.727	 -0.155	 -0.245
 56.734	 -0.125	 -0.255
 56.742	 -0.105	 -0.305
 56.750	 -0.105	 -0.335
 56.758	 -0.125	 -0.345
 56.766	 -0.155	 -0.335
 56.773	 -0.145	 -0.325
 56.781	 -0.185	 -0.345
 56.789	 -0.155	 -0.285
 56.797	 -0.175	 -0.295
 56.805	 -0.115	 -0.235
 56.812	 -0.115	 -0.175
 56.820	 -0.085	 -0.115
 56.828	 -0.075	 -0.065
 56.836	 -0.155	 -0.065
 56.844	 -0.095	 -0.035
 56.852	 -0.105	 -0.015
 56.859	 -0.115	 -0.015
 56.867	 -0.145	 -0.015
 56.875	 -0.135	 -0.025
 56.883	 -0.155	 -0.025
 56.891	 -0.105	 -0.015
 56.898	 -0.155	  0.005
 56.906	 -0.165	 -0.035
 56.914	 -0.115	 -0.015
 56.922	 -0.105	 -0.035
 56.930	 -0.135	 -0.005
 56.938	 -0.145	 -0.015
 56.945	 -0.115	 -0.015
 56.953	 -0.125	 -0.055
 56.961	 -0.135	 -0.025
 56.969	 -0.185	 -0.015
 56.977	 -0.105	 -0.005
 56.984	 -0.145	 -0.035
 56.992	 -0.135	 -0.005
 57.000	 -0.115	 -0.005
 57.008	 -0.155	 -0.025
 57.016	 -0.125	 -0.015
 57.023	 -0.075	  0.015
 57.031	 -0.095	  0.015
 57.039	 -0.085	  0.045
 57.047	 -0.025	  0.045
 57.055	  0.075	 -0.035
 57.062	 -0.005	 -0.075
 57.070	 -0.075	 -0.065
 57.078	 -0.125	 -0.055
 57.086	 -0.095	 -0.045
 57.094	 -0.155	 -0.005
 57.102	 -0.145	 -0.055
 57.109	 -0.215	 -0.045
 57.117	 -0.215	 -0.025
 57.125	 -0.185	 -0.045
 57.133	 -0.205	 -0.045
 57.141	 -0.195	 -0.045
 57.148	 -0.135	 -0.055
 57.156	 -0.295	  0.105
 57.164	 -0.855	  0.035
 57.172	 -0.455	 -0.325
 57.180	  0.945	 -0.635
 57.188	  2.495	 -0.085
 57.195	  2.785	  0.525
 57.203	  2.485	  0.805
 57.211	  0.955	 -0.545
 57.219	 -0.275	 -0.745
 57.227	 -0.335	 -0.275
 57.234	 -0.275	 -0.065
 57.242	 -0.355	 -0.095
 57.250	 -0.335	 -0.115
 57.258	 -0.365	 -0.115
 57.266	 -0.365	 -0.085
 57.273	 -0.305	 -0.115
 57.281	 -0.295	 -0.125
 57.289	 -0.325	 -0.145
 57.297	 -0.285	 -0.125
 57.305	 -0.255	 -0.145
 57.312	 -0.285	 -0.205
 57.320	 -0.235	 -0.175
 57.328	 -0.205	 -0.145
 57.336	 -0.205	 -0.205
 57.344	 -0.175	 -0.255
 57.352	 -0.165	 -0.265
 57.359	 -0.155	 -0.285
 57.367	 -0.155	 -0.315
 57.375	 -0.145	 -0.305
 57.383	 -0.185	 -0.365
 57.391	 -0.205	 -0.355
 57.398	 -0.215	 -0.355
 57.406	 -0.215	 -0.335
 57.414	 -0.245	 -0.305
 57.422	 -0.195	 -0.275
 57.430	 -0.105	 -0.235
 57.438	 -0.115	 -0.185
 57.445	 -0.105	 -0.115
 57.453	 -0.075	 -0.105
 57.461	 -0.125	 -0.075
 57.469	 -0.135	 -0.065
 57.477	 -0.135	 -0.065
 57.484	 -0.155	 -0.015
 57.492	 -0.165	 -0.035
 57.500	 -0.155	 -0.045
 57.508	 -0.185	 -0.025
 57.516	 -0.165	 -0.005
 57.523	 -0.185	 -0.015
 57.531	 -0.185	 -0.045
 57.539	 -0.155	 -0.055
 57.547	 -0.165	 -0.025
 57.555	 -0.155	 -0.035
 57.562	 -0.145	 -0.005
 57.570	 -0.175	 -0.015
 57.578	 -0.165	 -0.015
 57.586	 -0.165	 -0.045
 57.594	 -0.215	 -0.035
 57.602	 -0.195	 -0.025
 57.609	 -0.125	 -0.035
 57.617	 -0.135	 -0.005
 57.625	 -0.105	 -0.005
 57.633	 -0.085	  0.025
 57.641	 -0.105	  0.045
 57.648	 -0.095	  0.065
 57.656	 -0.055	  0.015
 57.664	 -0.025	 -0.055
 57.672	 -0.055	 -0.085
 57.680	 -0.075	 -0.045
 57.688	 -0.105	 -0.045
 57.695	 -0.155	 -0.005
 57.703	 -0.155	 -0.005
 57.711	 -0.175	 -0.035
 57.719	 -0.205	 -0.045
 57.727	 -0.205	 -0.065
 57.734	 -0.205	 -0.045
 57.742	 -0.195	 -0.035
 57.750	 -0.205	 -0.025
 57.758	 -0.165	 -0.005
 57.766	 -0.395	  0.155
 57.773	 -0.925	  0.125
 57.781	 -0.455	 -0.205
 57.789	  1.175	 -0.435
 57.797	  2.685	 -0.095
 57.805	  2.855	  0.445
 57.812	  2.295	  0.295
 57.820	  0.345	 -0.865
 57.828	 -0.375	 -0.465
 57.836	 -0.305	 -0.065
 57.844	 -0.305	 -0.045
 57.852	 -0.335	 -0.035
 57.859	 -0.335	 -0.045
 57.867	 -0.355	 -0.045
 57.875	 -0.385	 -0.085
 57.883	 -0.325	 -0.085
 57.891	 -0.315	 -0.055
 57.898	 -0.275	 -0.065
 57.906	 -0.265	 -0.085
 57.914	 -0.245	 -0.105
 57.922	 -0.245	 -0.105
 57.930	 -0.205	 -0.125
 57.938	 -0.185	 -0.145
 57.945	 -0.195	 -0.155
 57.953	 -0.195	 -0.155
 57.961	 -0.125	 -0.205
 57.969	 -0.125	 -0.205
 57.977	 -0.135	 -0.205
 57.984	 -0.185	 -0.255
 57.992	 -0.155	 -0.265
 58.000	 -0.125	 -0.245
 58.008	 -0.155	 -0.225
 58.016	 -0.175	 -0.215
 58.023	 -0.215	 -0.195
 58.031	 -0.155	 -0.165
 58.039	 -0.135	 -0.135
 58.047	 -0.125	 -0.075
 58.055	 -0.115	 -0.065
 58.062	 -0.105	 -0.035
 58.070	 -0.105	  0.005
 58.078	 -0.135	  0.005
 58.086	 -0.135	  0.015
 58.094	 -0.165	  0.005
 58.102	 -0.185	  0.015
 58.109	 -0.125	  0.025
 58.117	 -0.175	  0.015
 58.125	 -0.165	  0.005
 58.133	 -0.125	  0.025
 58.141	 -0.115	  0.025
 58.148	 -0.145	  0.015
 58.156	 -0.145	 -0.005
 58.164	 -0.125	 -0.015
 58.172	 -0.185	  0.015
 58.180	 -0.125	  0.035
 58.188	 -0.115	  0.005
 58.195	 -0.115	 -0.005
 58.203	 -0.145	  0.015
 58.211	 -0.135	  0.015
 58.219	 -0.115	  0.025
 58.227	 -0.095	  0.045
 58.234	 -0.055	  0.065
 58.242	 -0.045	  0.085
 58.250	 -0.045	  0.085
 58.258	  0.055	  0.005
 58.266	 -0.015	 -0.015
 58.273	 -0.075	 -0.015
 58.281	 -0.125	 -0.025
 58.289	 -0.085	  0.015
 58.297	 -0.095	  0.035
 58.305	 -0.125	 -0.005
 58.312	 -0.185	 -0.025
 58.320	 -0.235	 -0.005
 58.328	 -0.185	  0.015
 58.336	 -0.185	 -0.005
 58.344	 -0.195	  0.005
 58.352	 -0.165	  0.005
 58.359	 -0.265	  0.135
 58.367	 -0.895	  0.225
 58.375	 -0.785	 -0.045
 58.383	  0.465	 -0.445
 58.391	  2.375	 -0.165
 58.398	  3.025	  0.225
 58.406	  2.715	  0.585
 58.414	  1.485	 -0.545
 58.422	 -0.045	 -0.745
 58.430	 -0.255	 -0.205
 58.438	 -0.225	  0.015
 58.445	 -0.295	  0.015
 58.453	 -0.335	 -0.005
 58.461	 -0.335	 -0.025
 58.469	 -0.315	 -0.015
 58.477	 -0.315	 -0.015
 58.484	 -0.295	 -0.025
 58.492	 -0.285	 -0.025
 58.500	 -0.295	 -0.015
 58.508	 -0.265	 -0.055
 58.516	 -0.205	 -0.065
 58.523	 -0.175	 -0.055
 58.531	 -0.195	 -0.075
 58.539	 -0.175	 -0.075
 58.547	 -0.145	 -0.095
 58.555	 -0.145	 -0.115
 58.562	 -0.135	 -0.145
 58.570	 -0.125	 -0.165
 58.578	 -0.115	 -0.155
 58.586	 -0.105	 -0.195
 58.594	 -0.125	 -0.235
 58.602	 -0.165	 -0.215
 58.609	 -0.185	 -0.195
 58.617	 -0.215	 -0.195
 58.625	 -0.225	 -0.185
 58.633	 -0.185	 -0.165
 58.641	 -0.155	 -0.075
 58.648	 -0.115	 -0.055
 58.656	 -0.105	 -0.045
 58.664	 -0.165	 -0.015
 58.672	 -0.135	  0.035
 58.680	 -0.115	  0.025
 58.688	 -0.125	  0.045
 58.695	 -0.135	  0.045
 58.703	 -0.145	  0.035
 58.711	 -0.165	  0.015
 58.719	 -0.135	  0.025
 58.727	 -0.165	  0.025
 58.734	 -0.135	  0.065
 58.742	 -0.135	  0.015
 58.750	 -0.105	  0.005
 58.758	 -0.145	  0.015
 58.766	 -0.135	  0.025
 58.773	 -0.115	  0.035
 58.781	 -0.135	  0.015
 58.789	 -0.145	  0.035
 58.797	 -0.135	  0.005
 58.805	 -0.095	  0.005
 58.812	 -0.105	  0.035
 58.820	 -0.055	  0.045
 58.828	 -0.075	  0.065
 58.836	 -0.115	  0.085
 58.844	 -0.025	  0.085
 58.852	  0.065	  0.005
 58.859	 -0.005	  0.005
 58.867	 -0.065	 -0.035
 58.875	 -0.075	 -0.015
 58.883	 -0.095	  0.025
 58.891	 -0.135	  0.035
 58.898	 -0.175	 -0.025
 58.906	 -0.165	 -0.005
 58.914	 -0.155	  0.005
 58.922	 -0.185	 -0.005
 58.930	 -0.175	  0.005
 58.938	 -0.195	 -0.005
 58.945	 -0.185	 -0.015
 58.953	 -0.215	  0.125
 58.961	 -0.885	  0.195
 58.969	 -0.785	 -0.085
 58.977	  0.555	 -0.595
 58.984	  2.205	 -0.205
 58.992	  2.895	  0.305
 59.000	  2.675	  0.775
 59.008	  1.425	 -0.485
 59.016	 -0.025	 -0.755
 59.023	 -0.285	 -0.205
 59.031	 -0.225	 -0.015
 59.039	 -0.285	 -0.035
 59.047	 -0.335	 -0.025
 59.055	 -0.385	 -0.045
 59.062	 -0.385	 -0.055
 59.070	 -0.285	 -0.045
 59.078	 -0.315	 -0.025
 59.086	 -0.295	 -0.065
 59.094	 -0.265	 -0.075
 59.102	 -0.255	 -0.075
 59.109	 -0.265	 -0.085
 59.117	 -0.225	 -0.095
 59.125	 -0.185	 -0.105
 59.133	 -0.175	 -0.095
 59.141	 -0.185	 -0.135
 59.148	 -0.165	 -0.155
 59.156	 -0.135	 -0.185
 59.164	 -0.125	 -0.205
 59.172	 -0.095	 -0.205
 59.180	 -0.115	 -0.235
 59.188	 -0.155	 -0.275
 59.195	 -0.145	 -0.255
 59.203	 -0.185	 -0.265
 59.211	 -0.185	 -0.245
 59.219	 -0.225	 -0.255
 59.227	 -0.155	 -0.185
 59.234	 -0.145	 -0.135
 59.242	 -0.135	 -0.105
 59.250	 -0.135	 -0.075
 59.258	 -0.115	 -0.055
 59.266	 -0.125	 -0.025
 59.273	 -0.145	  0.015
 59.281	 -0.115	  0.005
 59.289	 -0.155	  0.015
 59.297	 -0.155	  0.015
 59.305	 -0.145	 -0.005
 59.312	 -0.145	 -0.005
 59.320	 -0.175	  0.025
 59.328	 -0.125	  0.015
 59.336	 -0.135	  0.005
 59.344	 -0.185	  0.005
 59.352	 -0.135	  0.015
 59.359	 -0.115	  0.005
 59.367	 -0.135	 -0.005
 59.375	 -0.155	  0.005
 59.383	 -0.165	 -0.005
 59.391	 -0.125	  0.005
 59.398	 -0.095	  0.025
 59.406	 -0.155	 -0.005
 59.414	 -0.155	 -0.015
 59.422	 -0.095	  0.005
 59.430	 -0.045	  0.055
 59.438	 -0.105	  0.065
 59.445	 -0.105	  0.065
 59.453	  0.045	  0.025
 59.461	  0.035	 -0.035
 59.469	 -0.045	 -0.075
 59.477	 -0.095	 -0.035
 59.484	 -0.085	 -0.025
 59.492	 -0.115	  0.005
 59.500	 -0.145	  0.015
 59.508	 -0.165	  0.005
 59.516	 -0.205	 -0.015
 59.523	 -0.225	 -0.035
 59.531	 -0.195	 -0.045
 59.539	 -0.185	 -0.035
 59.547	 -0.205	 -0.015
 59.555	 -0.215	  0.025
 59.562	 -0.595	  0.195
 59.570	 -0.855	 -0.015
 59.578	 -0.335	 -0.525
 59.586	  1.225	 -0.515
 59.594	  2.575	  0.055
 59.602	  2.685	  0.815
 59.609	  2.125	  0.355
 59.617	  0.495	 -0.795
 59.625	 -0.275	 -0.525
 59.633	 -0.285	 -0.115
 59.641	 -0.325	 -0.055
 59.648	 -0.345	 -0.065
 59.656	 -0.325	 -0.075
 59.664	 -0.345	 -0.075
 59.672	 -0.305	 -0.105
 59.680	 -0.305	 -0.095
 59.688	 -0.355	 -0.125
 59.695	 -0.285	 -0.125
 59.703	 -0.255	 -0.115
 59.711	 -0.295	 -0.115
 59.719	 -0.255	 -0.165
 59.727	 -0.185	 -0.195
 59.734	 -0.185	 -0.175
 59.742	 -0.185	 -0.225
 59.750	 -0.185	 -0.225
 59.758	 -0.165	 -0.255
 59.766	 -0.135	 -0.295
 59.773	 -0.105	 -0.315
 59.781	 -0.135	 -0.365
 59.789	 -0.165	 -0.385
 59.797	 -0.135	 -0.345
 59.805	 -0.175	 -0.365
 59.812	 -0.195	 -0.365
 59.820	 -0.185	 -0.325
 59.828	 -0.155	 -0.255
 59.836	 -0.135	 -0.215
 59.844	 -0.145	 -0.165
 59.852	 -0.075	 -0.135
 59.859	 -0.095	 -0.055
 59.867	 -0.145	 -0.025
 59.875	 -0.125	 -0.055
 59.883	 -0.155	 -0.025
 59.891	 -0.155	 -0.015
 59.898	 -0.195	 -0.015
 59.906	 -0.135	 -0.035
 59.914	 -0.125	 -0.025
 59.922	 -0.145	 -0.015
 59.930	 -0.155	 -0.005
 59.938	 -0.155	 -0.035
 59.945	 -0.125	 -0.035
 59.953	 -0.125	  0.005
 59.961	 -0.155	 -0.035
 59.969	 -0.145	 -0.055
 59.977	 -0.175	 -0.035
 59.984	 -0.145	 -0.025
 59.992	 -0.165	 -0.025

